Database of Origin,University of Winnipeg Spectrophotometer Facility
Sample Description,8. Sulfates - Jim Crowley (USGS) IR spectra /  Crowley IR spectra
Date Added,2016-07-15 22:04:24.204671

Data ID,CWL_SUL_20          
Sample ID,Gypsum
Mineral Name,Gypsum
Locality,"Baja California, Mexico"
Grain Size,~250
Viewing Geometry,unknown
Resolution,0.08-40
Material Class,Sulfate

Wavelength
2083.55,0.7151
2084.39,0.7152
2085.23,0.7172
2086.06,0.7157
2086.9,0.7158
2087.74,0.7147
2088.58,0.7168
2089.43,0.7203
2090.27,0.7206
2091.11,0.7193
2091.95,0.7194
2092.8,0.7196
2093.64,0.7204
2094.49,0.7212
2095.33,0.7213
2096.18,0.7222
2097.03,0.7217
2097.88,0.7201
2098.73,0.7213
2099.58,0.7245
2100.43,0.7276
2101.28,0.7274
2102.13,0.7251
2102.98,0.7255
2103.83,0.7288
2104.69,0.7294
2105.54,0.7274
2106.4,0.7291
2107.25,0.7316
2108.11,0.7289
2108.97,0.7291
2109.83,0.7309
2110.68,0.7329
2111.54,0.7327
2112.4,0.7321
2113.27,0.7332
2114.13,0.7366
2114.99,0.7375
2115.85,0.7381
2116.72,0.7376
2117.58,0.7356
2118.44,0.7342
2119.31,0.735
2120.18,0.7345
2121.04,0.7366
2121.91,0.7409
2122.78,0.7435
2123.65,0.7407
2124.52,0.7386
2125.39,0.7399
2126.26,0.7409
2127.13,0.7399
2128.01,0.7413
2128.88,0.7413
2129.75,0.7413
2130.63,0.7443
2131.5,0.7459
2132.38,0.745
2133.26,0.7455
2134.14,0.745
2135.01,0.7449
2135.89,0.7441
2136.77,0.7449
2137.65,0.7469
2138.54,0.7485
2139.42,0.75
2140.3,0.7506
2141.18,0.75
2142.07,0.7473
2142.95,0.7448
2143.84,0.7473
2144.73,0.7498
2145.61,0.7485
2146.5,0.7466
2147.39,0.7493
2148.28,0.75
2149.17,0.7494
2150.06,0.7511
2150.95,0.7527
2151.85,0.7528
2152.74,0.7522
2153.63,0.7532
2154.53,0.7541
2155.42,0.7533
2156.32,0.7565
2157.22,0.7588
2158.11,0.7583
2159.01,0.7557
2159.91,0.7559
2160.81,0.7592
2161.71,0.7594
2162.61,0.7569
2163.52,0.7577
2164.42,0.7595
2165.32,0.7608
2166.23,0.7599
2167.13,0.7609
2168.04,0.7616
2168.94,0.7628
2169.85,0.7632
2170.76,0.7635
2171.67,0.7659
2172.58,0.7653
2173.49,0.7652
2174.4,0.7642
2175.31,0.765
2176.23,0.767
2177.14,0.7667
2178.05,0.767
2178.97,0.7682
2179.89,0.7685
2180.8,0.7676
2181.72,0.7684
2182.64,0.7686
2183.56,0.7685
2184.48,0.7679
2185.4,0.7667
2186.32,0.7676
2187.24,0.7698
2188.16,0.7685
2189.09,0.7677
2190.01,0.7677
2190.94,0.7697
2191.86,0.7717
2192.79,0.769
2193.72,0.7656
2194.64,0.7701
2195.57,0.7716
2196.5,0.7694
2197.43,0.7703
2198.37,0.7727
2199.3,0.7739
2200.23,0.7758
2201.16,0.7756
2202.1,0.7747
2203.03,0.7728
2203.97,0.7752
2204.91,0.7771
2205.85,0.7766
2206.78,0.7773
2207.72,0.7775
2208.66,0.7767
2209.61,0.7794
2210.55,0.7803
2211.49,0.7787
2212.43,0.7777
2213.38,0.7795
2214.32,0.7818
2215.27,0.782
2216.21,0.7832
2217.16,0.7846
2218.11,0.7819
2219.06,0.7799
2220.01,0.7807
2220.96,0.7834
2221.91,0.7817
2222.86,0.7794
2223.82,0.779
2224.77,0.7795
2225.73,0.7769
2226.68,0.7785
2227.64,0.777
2228.6,0.7723
2229.55,0.7736
2230.51,0.7757
2231.47,0.774
2232.43,0.7722
2233.39,0.7702
2234.36,0.7703
2235.32,0.7694
2236.28,0.7686
2237.25,0.7663
2238.21,0.7659
2239.18,0.7671
2240.15,0.7696
2241.12,0.7686
2242.08,0.7682
2243.05,0.7678
2244.02,0.766
2245.0,0.7663
2245.97,0.7654
2246.94,0.7665
2247.91,0.7684
2248.89,0.7677
2249.87,0.7684
2250.84,0.7648
2251.82,0.763
2252.8,0.7646
2253.78,0.7678
2254.76,0.7692
2255.74,0.7685
2256.72,0.7691
2257.7,0.77
2258.68,0.7689
2259.67,0.7699
2260.65,0.7716
2261.64,0.7724
2262.63,0.771
2263.61,0.7697
2264.6,0.7692
2265.59,0.7717
2266.58,0.7728
2267.57,0.7735
2268.56,0.7736
2269.56,0.774
2270.55,0.7723
2271.55,0.7693
2272.54,0.7684
2273.54,0.7704
2274.53,0.7719
2275.53,0.771
2276.53,0.7686
2277.53,0.7639
2278.53,0.7623
2279.53,0.7633
2280.54,0.7631
2281.54,0.7631
2282.54,0.7615
2283.55,0.7639
2284.55,0.7651
2285.56,0.7648
2286.57,0.7644
2287.58,0.7629
2288.59,0.7616
2289.6,0.7624
2290.61,0.7606
2291.62,0.7589
2292.63,0.7601
2293.65,0.7613
2294.66,0.7609
2295.68,0.7626
2296.69,0.763
2297.71,0.7609
2298.73,0.7589
2299.75,0.7596
2300.77,0.7595
2301.79,0.7585
2302.81,0.7582
2303.84,0.7584
2304.86,0.7582
2305.88,0.7596
2306.91,0.7609
2307.94,0.7608
2308.96,0.7596
2309.99,0.7611
2311.02,0.7633
2312.05,0.7639
2313.08,0.7651
2314.12,0.7658
2315.15,0.7624
2316.18,0.7595
2317.22,0.7607
2318.25,0.7629
2319.29,0.7622
2320.33,0.762
2321.37,0.7606
2322.41,0.7601
2323.45,0.7606
2324.49,0.7613
2325.53,0.7624
2326.57,0.7645
2327.62,0.7613
2328.66,0.7595
2329.71,0.7637
2330.76,0.7661
2331.8,0.7648
2332.85,0.7657
2333.9,0.7662
2334.95,0.7649
2336.01,0.7629
2337.06,0.7637
2338.11,0.7661
2339.17,0.769
2340.22,0.7694
2341.28,0.7694
2342.34,0.7692
2343.39,0.771
2344.45,0.7719
2345.51,0.7718
2346.57,0.7719
2347.64,0.7731
2348.7,0.7731
2349.76,0.7724
2350.83,0.7735
2351.9,0.7765
2352.96,0.7776
2354.03,0.7792
2355.1,0.7791
2356.17,0.7794
2357.24,0.7808
2358.31,0.7824
2359.39,0.7833
2360.46,0.7837
2361.53,0.7838
2362.61,0.7855
2363.69,0.7875
2364.76,0.7886
2365.84,0.7885
2366.92,0.7886
2368.0,0.7879
2369.09,0.7898
2370.17,0.7905
2371.25,0.7915
2372.34,0.7927
2373.42,0.7959
2374.51,0.7965
2375.6,0.7967
2376.69,0.7974
2377.78,0.7996
2378.87,0.8007
2379.96,0.8018
2381.05,0.8005
2382.14,0.802
2383.24,0.8042
2384.33,0.8071
2385.43,0.8084
2386.53,0.8106
2387.63,0.8118
2388.73,0.814
2389.83,0.8152
2390.93,0.8163
2392.03,0.8173
2393.14,0.8186
2394.24,0.8186
2395.35,0.8197
2396.45,0.8203
2397.56,0.8218
2398.67,0.8224
2399.78,0.824
2400.89,0.8252
2402.0,0.8265
2403.12,0.8281
2404.23,0.8307
2405.35,0.8323
2406.46,0.8318
2407.58,0.831
2408.7,0.8324
2409.82,0.8342
2410.94,0.8346
2412.06,0.834
2413.18,0.8346
2414.3,0.8364
2415.43,0.8391
2416.55,0.8381
2417.68,0.8369
2418.81,0.8391
2419.94,0.8417
2421.07,0.8417
2422.2,0.8412
2423.33,0.8397
2424.46,0.8398
2425.6,0.8396
2426.73,0.8402
2427.87,0.8401
2429.0,0.8411
2430.14,0.8429
2431.28,0.8435
2432.42,0.8427
2433.56,0.8438
2434.71,0.8448
2435.85,0.8473
2436.99,0.8468
2438.14,0.8455
2439.29,0.8437
2440.43,0.8445
2441.58,0.8452
2442.73,0.8442
2443.88,0.8439
2445.04,0.8458
2446.19,0.8459
2447.34,0.8445
2448.5,0.8441
2449.66,0.8466
2450.81,0.8458
2451.97,0.8443
2453.13,0.8456
2454.29,0.8464
2455.45,0.8464
2456.62,0.8463
2457.78,0.8453
2458.95,0.8469
2460.11,0.8463
2461.28,0.8462
2462.45,0.8482
2463.62,0.8494
2464.79,0.8486
2465.96,0.848
2467.14,0.8477
2468.31,0.8509
2469.49,0.8504
2470.66,0.851
2471.84,0.8514
2473.02,0.8496
2474.2,0.8484
2475.38,0.8498
2476.56,0.852
2477.74,0.8524
2478.93,0.8517
2480.11,0.8516
2481.3,0.8508
2482.49,0.8506
2483.68,0.8502
2484.87,0.8515
2486.06,0.8526
2487.25,0.8519
2488.44,0.8512
2489.64,0.8505
2490.83,0.8509
2492.03,0.8517
2493.23,0.8509
2494.43,0.8512
2495.63,0.8499
2496.83,0.8505
2498.03,0.8513
2499.24,0.8502
2500.44,0.85
2501.65,0.8497
2502.86,0.8475
2504.06,0.8487
2505.27,0.8501
2506.48,0.8515
2507.7,0.8515
2508.91,0.8497
2510.12,0.8478
2511.34,0.8482
2512.56,0.849
2513.77,0.8504
2514.99,0.8497
2516.21,0.8484
2517.43,0.8498
2518.66,0.8502
2519.88,0.8486
2521.11,0.8491
2522.33,0.8491
2523.56,0.8475
2524.79,0.8479
2526.02,0.8507
2527.25,0.8505
2528.48,0.8493
2529.71,0.8472
2530.95,0.8461
2532.18,0.8472
2533.42,0.8491
2534.66,0.8487
2535.9,0.848
2537.14,0.8493
2538.38,0.8503
2539.62,0.8486
2540.87,0.8489
2542.11,0.8502
2543.36,0.8502
2544.61,0.8501
2545.86,0.8519
2547.11,0.8511
2548.36,0.8503
2549.61,0.8492
2550.87,0.8495
2552.12,0.8514
2553.38,0.8513
2554.64,0.8495
2555.89,0.8494
2557.16,0.8514
2558.42,0.8516
2559.68,0.849
2560.94,0.8503
2562.21,0.8529
2563.48,0.8537
2564.74,0.8533
2566.01,0.8529
2567.28,0.8518
2568.55,0.8517
2569.83,0.8532
2571.1,0.8543
2572.38,0.8519
2573.65,0.8516
2574.93,0.8531
2576.21,0.8534
2577.49,0.8532
2578.77,0.8533
2580.05,0.854
2581.34,0.8542
2582.62,0.8529
2583.91,0.8522
2585.2,0.8528
2586.49,0.854
2587.78,0.8544
2589.07,0.8533
2590.36,0.8523
2591.66,0.8528
2592.95,0.8543
2594.25,0.8554
2595.55,0.8532
2596.85,0.8524
2598.15,0.8529
2599.45,0.8529
2600.76,0.8523
2602.06,0.8533
2603.37,0.8547
2604.67,0.8547
2605.98,0.8536
2607.29,0.8538
2608.6,0.8537
2609.92,0.8545
2611.23,0.8554
2612.55,0.8566
2613.86,0.8555
2615.18,0.8547
2616.5,0.856
2617.82,0.8578
2619.14,0.8569
2620.47,0.8568
2621.79,0.8569
2623.12,0.8575
2624.45,0.8585
2625.77,0.8589
2627.1,0.8589
2628.44,0.8579
2629.77,0.8576
2631.1,0.8589
2632.44,0.8589
2633.78,0.8605
2635.11,0.8602
2636.45,0.8599
2637.79,0.8609
2639.14,0.8618
2640.48,0.8621
2641.83,0.8623
2643.17,0.8611
2644.52,0.8614
2645.87,0.8627
2647.22,0.8631
2648.57,0.8622
2649.92,0.8629
2651.28,0.8639
2652.64,0.8651
2653.99,0.8671
2655.35,0.8681
2656.71,0.8675
2658.07,0.8675
2659.44,0.8685
2660.8,0.8698
2662.17,0.8714
2663.53,0.8737
2664.9,0.8733
2666.27,0.8739
2667.64,0.8728
2669.02,0.8737
2670.39,0.8769
2671.77,0.8795
2673.14,0.8816
2674.52,0.8834
2675.9,0.8861
2677.28,0.8889
2678.67,0.8924
2680.05,0.8957
2681.44,0.8986
2682.82,0.9027
2684.21,0.9073
2685.6,0.9108
2686.99,0.9145
2688.39,0.9173
2689.78,0.9207
2691.18,0.9244
2692.57,0.9261
2693.97,0.9284
2695.37,0.932
2696.77,0.9355
2698.18,0.9388
2699.58,0.9406
2700.99,0.9421
2702.4,0.9443
2703.8,0.9455
2705.22,0.9466
2706.63,0.9475
2708.04,0.9485
2709.45,0.9493
2710.87,0.9514
2712.29,0.9528
2713.71,0.9545
2715.13,0.9547
2716.55,0.9549
2717.97,0.9547
2719.4,0.9552
2720.83,0.9561
2722.25,0.9578
2723.68,0.9582
2725.12,0.9586
2726.55,0.9596
2727.98,0.9611
2729.42,0.9615
2730.86,0.9618
2732.29,0.962
2733.73,0.9641
2735.18,0.9644
2736.62,0.9641
2738.06,0.9643
2739.51,0.9649
2740.96,0.9648
2742.41,0.9663
2743.86,0.9676
2745.31,0.9677
2746.77,0.967
2748.22,0.9674
2749.68,0.9673
2751.14,0.9689
2752.6,0.9699
2754.06,0.9697
2755.52,0.9709
2756.99,0.972
2758.45,0.9723
2759.92,0.9736
2761.39,0.9728
2762.86,0.9718
2764.33,0.9708
2765.81,0.972
2767.28,0.973
2768.76,0.9727
2770.24,0.9724
2771.72,0.9719
2773.2,0.9696
2774.69,0.9695
2776.17,0.971
2777.66,0.9715
2779.15,0.9713
2780.64,0.9714
2782.13,0.9706
2783.62,0.9699
2785.12,0.9697
2786.61,0.9692
2788.11,0.9702
2789.61,0.9711
2791.11,0.9705
2792.62,0.9703
2794.12,0.9695
2795.63,0.9697
2797.14,0.9709
2798.64,0.9719
2800.16,0.9705
2801.67,0.97
2803.18,0.9694
2804.7,0.9682
2806.22,0.9678
2807.74,0.9681
2809.26,0.9686
2810.78,0.9682
2812.3,0.9679
2813.83,0.9682
2815.36,0.9677
2816.89,0.9678
2818.42,0.9668
2819.95,0.9669
2821.48,0.9678
2823.02,0.9672
2824.56,0.9661
2826.1,0.966
2827.64,0.9665
2829.18,0.9675
2830.72,0.9676
2832.27,0.9681
2833.82,0.9682
2835.37,0.9688
2836.92,0.9687
2838.47,0.9696
2840.02,0.9701
2841.58,0.9708
2843.14,0.9714
2844.7,0.9713
2846.26,0.9699
2847.82,0.9695
2849.39,0.97
2850.95,0.9711
2852.52,0.9713
2854.09,0.971
2855.66,0.9708
2857.24,0.9718
2858.81,0.9725
2860.39,0.9733
2861.97,0.9739
2863.55,0.974
2865.13,0.9734
2866.71,0.9736
2868.3,0.9739
2869.88,0.9734
2871.47,0.9728
2873.06,0.974
2874.66,0.9746
2876.25,0.9749
2877.85,0.9735
2879.45,0.9735
2881.04,0.9739
2882.65,0.9742
2884.25,0.974
2885.85,0.9738
2887.46,0.9747
2889.07,0.9748
2890.68,0.974
2892.29,0.9747
2893.91,0.9747
2895.52,0.9736
2897.14,0.9732
2898.76,0.9735
2900.38,0.973
2902.0,0.9731
2903.63,0.9739
2905.25,0.9739
2906.88,0.9732
2908.51,0.9737
2910.14,0.9735
2911.78,0.9729
2913.41,0.9713
2915.05,0.9706
2916.69,0.971
2918.33,0.9708
2919.98,0.9694
2921.62,0.969
2923.27,0.969
2924.92,0.9687
2926.57,0.9678
2928.22,0.9685
2929.87,0.9681
2931.53,0.9681
2933.19,0.9687
2934.85,0.9691
2936.51,0.9695
2938.17,0.969
2939.84,0.9688
2941.51,0.9693
2943.18,0.9698
2944.85,0.9707
2946.52,0.9698
2948.19,0.9698
2949.87,0.9706
2951.55,0.9704
2953.23,0.969
2954.91,0.9689
2956.6,0.9697
2958.28,0.9711
2959.97,0.9715
2961.66,0.9716
2963.36,0.9709
2965.05,0.9714
2966.75,0.9711
2968.44,0.9706
2970.14,0.9697
2971.85,0.9697
2973.55,0.9699
2975.26,0.9697
2976.96,0.9701
2978.67,0.9708
2980.39,0.9706
2982.1,0.9699
2983.82,0.97
2985.53,0.9711
2987.25,0.9713
2988.97,0.9709
2990.7,0.9694
2992.42,0.9695
2994.15,0.9702
2995.88,0.97
2997.61,0.9699
2999.35,0.9704
3001.08,0.9692
3002.82,0.9694
3004.56,0.9698
3006.3,0.9706
3008.04,0.9704
3009.79,0.9698
3011.54,0.9689
3013.29,0.9692
3015.04,0.9684
3016.79,0.9682
3018.55,0.9688
3020.31,0.9694
3022.07,0.9691
3023.83,0.9685
3025.59,0.9674
3027.36,0.9674
3029.13,0.9691
3030.9,0.9696
3032.67,0.9685
3034.44,0.9677
3036.22,0.9672
3038.0,0.9677
3039.78,0.9668
3041.56,0.9659
3043.35,0.9667
3045.14,0.9674
3046.92,0.9667
3048.72,0.9665
3050.51,0.9672
3052.3,0.9675
3054.1,0.9669
3055.9,0.9664
3057.7,0.9654
3059.51,0.9652
3061.31,0.9655
3063.12,0.9655
3064.93,0.9651
3066.74,0.9654
3068.56,0.965
3070.37,0.965
3072.19,0.9649
3074.01,0.965
3075.84,0.9647
3077.66,0.9649
3079.49,0.9649
3081.32,0.9642
3083.15,0.9639
3084.99,0.9637
3086.82,0.9634
3088.66,0.9642
3090.5,0.9634
3092.34,0.9625
3094.19,0.963
3096.04,0.963
3097.89,0.962
3099.74,0.9618
3101.59,0.9614
3103.45,0.9611
3105.31,0.9614
3107.17,0.9611
3109.03,0.9605
3110.89,0.9602
3112.76,0.9603
3114.63,0.9611
3116.5,0.9606
3118.38,0.9601
3120.25,0.9595
3122.13,0.9588
3124.01,0.9575
3125.89,0.9579
3127.78,0.9583
3129.67,0.9576
3131.56,0.9566
3133.45,0.9558
3135.34,0.9558
3137.24,0.9561
3139.14,0.9551
3141.04,0.9551
3142.94,0.9552
3144.85,0.9545
3146.76,0.9536
3148.67,0.9533
3150.58,0.9524
3152.5,0.9522
3154.41,0.9517
3156.33,0.9512
3158.25,0.9501
3160.18,0.9493
3162.11,0.949
3164.04,0.9493
3165.97,0.9493
3167.9,0.9492
3169.84,0.9485
3171.78,0.9477
3173.72,0.9469
3175.66,0.9465
3177.61,0.9462
3179.55,0.9459
3181.5,0.9451
3183.46,0.945
3185.41,0.9439
3187.37,0.9434
3189.33,0.9431
3191.29,0.9427
3193.26,0.9424
3195.23,0.9412
3197.2,0.9398
3199.17,0.9397
3201.14,0.9396
3203.12,0.9395
3205.1,0.9386
3207.08,0.9383
3209.07,0.9381
3211.05,0.9375
3213.04,0.9366
3215.03,0.9359
3217.03,0.9354
3219.03,0.9354
3221.02,0.9348
3223.03,0.9342
3225.03,0.9337
3227.04,0.9334
3229.05,0.932
3231.06,0.9316
3233.07,0.932
3235.09,0.9317
3237.11,0.9309
3239.13,0.9307
3241.15,0.93
3243.18,0.9291
3245.21,0.9283
3247.24,0.9273
3249.28,0.9269
3251.31,0.9271
3253.35,0.9264
3255.4,0.9263
3257.44,0.9257
3259.49,0.9247
3261.54,0.9234
3263.59,0.9234
3265.65,0.923
3267.7,0.9225
3269.76,0.922
3271.83,0.9216
3273.89,0.9209
3275.96,0.9205
3278.03,0.9197
3280.1,0.9191
3282.18,0.9185
3284.26,0.9179
3286.34,0.9174
3288.42,0.9174
3290.51,0.9169
3292.6,0.9164
3294.69,0.9152
3296.78,0.9145
3298.88,0.9142
3300.98,0.9139
3303.08,0.9131
3305.19,0.9116
3307.3,0.9109
3309.41,0.9112
3311.52,0.9104
3313.64,0.9098
3315.75,0.909
3317.88,0.9089
3320.0,0.9086
3322.13,0.9078
3324.26,0.9073
3326.39,0.9069
3328.52,0.9059
3330.66,0.9053
3332.8,0.9051
3334.94,0.9048
3337.09,0.9033
3339.24,0.9024
3341.39,0.902
3343.54,0.9019
3345.7,0.901
3347.86,0.8999
3350.02,0.8993
3352.19,0.8989
3354.36,0.8976
3356.53,0.8972
3358.7,0.8975
3360.88,0.8968
3363.06,0.8958
3365.24,0.8952
3367.43,0.8943
3369.61,0.8934
3371.8,0.8923
3374.0,0.892
3376.19,0.8917
3378.39,0.8911
3380.6,0.89
3382.8,0.8894
3385.01,0.8891
3387.22,0.8885
3389.43,0.8879
3391.65,0.8876
3393.87,0.8869
3396.09,0.8863
3398.32,0.8857
3400.55,0.8853
3402.78,0.8846
3405.01,0.8835
3407.25,0.8825
3409.49,0.8821
3411.73,0.882
3413.98,0.8818
3416.23,0.8815
3418.48,0.8803
3420.73,0.8792
3422.99,0.8781
3425.25,0.8763
3427.51,0.8758
3429.78,0.8757
3432.05,0.8755
3434.32,0.8753
3436.6,0.8751
3438.88,0.8748
3441.16,0.8748
3443.45,0.8739
3445.73,0.8736
3448.02,0.8733
3450.32,0.8722
3452.61,0.8712
3454.91,0.8707
3457.22,0.8703
3459.52,0.8701
3461.83,0.8694
3464.15,0.8689
3466.46,0.8683
3468.78,0.8681
3471.1,0.8673
3473.43,0.8666
3475.75,0.866
3478.09,0.8653
3480.42,0.8645
3482.76,0.8643
3485.1,0.8634
3487.44,0.8623
3489.79,0.8619
3492.14,0.8616
3494.49,0.861
3496.85,0.8604
3499.21,0.8589
3501.57,0.8571
3503.93,0.8563
3506.3,0.8562
3508.68,0.8555
3511.05,0.8553
3513.43,0.8546
3515.81,0.8546
3518.2,0.8546
3520.58,0.8545
3522.98,0.8537
3525.37,0.8531
3527.77,0.8524
3530.17,0.852
3532.57,0.8507
3534.98,0.85
3537.39,0.8504
3539.81,0.8503
3542.23,0.8501
3544.65,0.85
3547.07,0.8486
3549.5,0.8473
3551.93,0.8462
3554.36,0.846
3556.8,0.846
3559.24,0.8453
3561.69,0.8446
3564.14,0.8443
3566.59,0.8436
3569.04,0.8428
3571.5,0.8421
3573.96,0.8417
3576.42,0.8413
3578.89,0.8414
3581.36,0.8404
3583.84,0.8396
3586.32,0.8391
3588.8,0.8387
3591.28,0.8376
3593.77,0.8368
3596.26,0.8363
3598.76,0.8355
3601.26,0.8346
3603.76,0.834
3606.27,0.8333
3608.78,0.8328
3611.29,0.8325
3613.81,0.8323
3616.33,0.8314
3618.85,0.8306
3621.38,0.8302
3623.91,0.8295
3626.44,0.8285
3628.98,0.8283
3631.52,0.8278
3634.06,0.8265
3636.61,0.8254
3639.16,0.8251
3641.72,0.8251
3644.28,0.8248
3646.84,0.8237
3649.41,0.8233
3651.98,0.8228
3654.55,0.822
3657.13,0.8208
3659.71,0.8207
3662.29,0.8204
3664.88,0.8203
3667.47,0.8195
3670.07,0.8184
3672.67,0.818
3675.27,0.8177
3677.88,0.8174
3680.49,0.8167
3683.1,0.8163
3685.72,0.8168
3688.34,0.8167
3690.96,0.8162
3693.59,0.8155
3696.23,0.815
3698.86,0.8142
3701.5,0.814
3704.15,0.8141
3706.79,0.8141
3709.44,0.8134
3712.1,0.8128
3714.76,0.8128
3717.42,0.8127
3720.09,0.8123
3722.76,0.8127
3725.43,0.8127
3728.11,0.8125
3730.79,0.8117
3733.48,0.8107
3736.17,0.811
3738.86,0.8117
3741.56,0.8108
3744.26,0.8103
3746.97,0.8099
3749.67,0.81
3752.39,0.8105
3755.1,0.8104
3757.83,0.8101
3760.55,0.8101
3763.28,0.81
3766.01,0.8096
3768.75,0.8095
3771.49,0.8102
3774.23,0.811
3776.98,0.8111
3779.74,0.811
3782.49,0.8109
3785.25,0.8106
3788.02,0.8103
3790.79,0.8102
3793.56,0.8108
3796.34,0.8111
3799.12,0.8113
3801.9,0.8113
3804.69,0.8111
3807.48,0.8109
3810.28,0.8102
3813.08,0.8097
3815.89,0.8096
3818.7,0.8091
3821.51,0.8093
3824.33,0.8091
3827.15,0.809
3829.98,0.8089
3832.81,0.8087
3835.64,0.8085
3838.48,0.8083
3841.33,0.809
3844.17,0.8104
3847.03,0.8112
3849.88,0.8115
3852.74,0.812
3855.61,0.813
3858.47,0.8136
3861.35,0.8144
3864.22,0.8163
3867.11,0.8188
3869.99,0.8199
3872.88,0.8195
3875.78,0.8185
3878.67,0.8177
3881.58,0.8168
3884.48,0.8156
3887.4,0.8149
3890.31,0.8153
3893.23,0.8153
3896.16,0.815
3899.09,0.8154
3902.02,0.8159
3904.96,0.8165
3907.9,0.817
3910.85,0.8176
3913.8,0.8188
3916.76,0.8194
3919.72,0.8196
3922.68,0.82
3925.65,0.821
3928.62,0.8215
3931.6,0.821
3934.58,0.8214
3937.57,0.8227
3940.56,0.8234
3943.56,0.8238
3946.56,0.8245
3949.57,0.826
3952.58,0.8271
3955.59,0.8284
3958.61,0.8295
3961.63,0.831
3964.66,0.8323
3967.7,0.8332
3970.73,0.8336
3973.78,0.8336
3976.82,0.8334
3979.88,0.8325
3982.93,0.8315
3985.99,0.831
3989.06,0.8303
3992.13,0.8302
3995.21,0.8304
3998.29,0.8305
4001.37,0.8312
4004.46,0.8316
4007.55,0.8316
4010.65,0.8321
4013.76,0.8327
4016.87,0.8332
4019.98,0.8336
4023.1,0.8339
4026.22,0.8339
4029.35,0.8349
4032.48,0.8357
4035.62,0.8366
4038.76,0.8373
4041.91,0.8372
4045.06,0.8377
4048.22,0.8389
4051.38,0.84
4054.55,0.8408
4057.72,0.8413
4060.9,0.8417
4064.08,0.8422
4067.27,0.8432
4070.46,0.8443
4073.66,0.845
4076.86,0.8455
4080.07,0.8459
4083.28,0.8466
4086.5,0.8474
4089.72,0.8484
4092.95,0.849
4096.18,0.8494
4099.42,0.8504
4102.66,0.8515
4105.91,0.8522
4109.16,0.8529
4112.42,0.8533
4115.69,0.8541
4118.96,0.8551
4122.23,0.8557
4125.51,0.8571
4128.79,0.8579
4132.08,0.8581
4135.38,0.8585
4138.68,0.8594
4141.98,0.861
4145.29,0.8616
