Database of Origin,University of Winnipeg Spectrophotometer Facility
Sample Description,8. Sulfates - Jim Crowley (USGS) IR spectra /  Crowley IR spectra
Date Added,2016-07-15 22:04:24.118255

Data ID,CWL_SUL_16          
Sample ID,Bloedite
Mineral Name,Bloedite
Locality,"Soda Lake, CA"
Grain Size,~250
Viewing Geometry,unknown
Resolution,0.08-40
Material Class,Sulfate

Wavelength
2083.55,0.8139
2084.39,0.8151
2085.23,0.8151
2086.06,0.815
2086.9,0.813
2087.74,0.8145
2088.58,0.8167
2089.43,0.815
2090.27,0.8112
2091.11,0.8122
2091.95,0.8129
2092.8,0.8139
2093.64,0.8149
2094.49,0.8144
2095.33,0.8152
2096.18,0.8166
2097.03,0.8164
2097.88,0.8162
2098.73,0.8179
2099.58,0.8199
2100.43,0.8188
2101.28,0.8187
2102.13,0.8197
2102.98,0.8211
2103.83,0.8234
2104.69,0.8224
2105.54,0.8205
2106.4,0.8218
2107.25,0.8248
2108.11,0.8267
2108.97,0.8263
2109.83,0.8258
2110.68,0.8255
2111.54,0.8267
2112.4,0.8269
2113.27,0.829
2114.13,0.8281
2114.99,0.8264
2115.85,0.8245
2116.72,0.8261
2117.58,0.8272
2118.44,0.8247
2119.31,0.8252
2120.18,0.8269
2121.04,0.826
2121.91,0.828
2122.78,0.8274
2123.65,0.8267
2124.52,0.8263
2125.39,0.8259
2126.26,0.8259
2127.13,0.826
2128.01,0.8233
2128.88,0.8214
2129.75,0.8214
2130.63,0.8231
2131.5,0.8223
2132.38,0.8233
2133.26,0.8226
2134.14,0.8229
2135.01,0.8228
2135.89,0.8242
2136.77,0.8249
2137.65,0.8252
2138.54,0.8244
2139.42,0.8239
2140.3,0.8251
2141.18,0.8276
2142.07,0.8283
2142.95,0.826
2143.84,0.8249
2144.73,0.8251
2145.61,0.8262
2146.5,0.8281
2147.39,0.8313
2148.28,0.833
2149.17,0.8306
2150.06,0.8297
2150.95,0.8304
2151.85,0.8315
2152.74,0.8306
2153.63,0.8305
2154.53,0.8283
2155.42,0.8274
2156.32,0.8283
2157.22,0.8288
2158.11,0.8272
2159.01,0.8275
2159.91,0.8281
2160.81,0.8276
2161.71,0.8271
2162.61,0.8283
2163.52,0.8263
2164.42,0.8246
2165.32,0.8219
2166.23,0.8196
2167.13,0.8211
2168.04,0.8244
2168.94,0.8243
2169.85,0.8227
2170.76,0.8221
2171.67,0.8226
2172.58,0.8228
2173.49,0.8237
2174.4,0.8211
2175.31,0.822
2176.23,0.8251
2177.14,0.8253
2178.05,0.8242
2178.97,0.8243
2179.89,0.8249
2180.8,0.8253
2181.72,0.8257
2182.64,0.8245
2183.56,0.8228
2184.48,0.8238
2185.4,0.8228
2186.32,0.8228
2187.24,0.8242
2188.16,0.8247
2189.09,0.8226
2190.01,0.8202
2190.94,0.8188
2191.86,0.8201
2192.79,0.8228
2193.72,0.8232
2194.64,0.8211
2195.57,0.8204
2196.5,0.8192
2197.43,0.8178
2198.37,0.8165
2199.3,0.8182
2200.23,0.8183
2201.16,0.8153
2202.1,0.8125
2203.03,0.8153
2203.97,0.8159
2204.91,0.8154
2205.85,0.8137
2206.78,0.8116
2207.72,0.8104
2208.66,0.8116
2209.61,0.8098
2210.55,0.8095
2211.49,0.8104
2212.43,0.8103
2213.38,0.8102
2214.32,0.8106
2215.27,0.8107
2216.21,0.8109
2217.16,0.8114
2218.11,0.8101
2219.06,0.8083
2220.01,0.8093
2220.96,0.8102
2221.91,0.8113
2222.86,0.8115
2223.82,0.8127
2224.77,0.8132
2225.73,0.8141
2226.68,0.813
2227.64,0.8121
2228.6,0.8139
2229.55,0.8148
2230.51,0.8135
2231.47,0.8143
2232.43,0.8159
2233.39,0.8172
2234.36,0.8148
2235.32,0.8148
2236.28,0.8157
2237.25,0.8147
2238.21,0.8133
2239.18,0.8143
2240.15,0.8156
2241.12,0.8153
2242.08,0.8144
2243.05,0.8165
2244.02,0.8176
2245.0,0.8165
2245.97,0.8143
2246.94,0.8162
2247.91,0.818
2248.89,0.8174
2249.87,0.8162
2250.84,0.8155
2251.82,0.8167
2252.8,0.8183
2253.78,0.8167
2254.76,0.8177
2255.74,0.8194
2256.72,0.8191
2257.7,0.8195
2258.68,0.8192
2259.67,0.8172
2260.65,0.8165
2261.64,0.817
2262.63,0.8175
2263.61,0.8177
2264.6,0.8181
2265.59,0.8172
2266.58,0.8171
2267.57,0.8167
2268.56,0.8178
2269.56,0.8179
2270.55,0.8178
2271.55,0.8184
2272.54,0.8188
2273.54,0.8177
2274.53,0.8158
2275.53,0.8144
2276.53,0.8144
2277.53,0.8132
2278.53,0.8134
2279.53,0.8124
2280.54,0.8107
2281.54,0.8108
2282.54,0.8099
2283.55,0.808
2284.55,0.8067
2285.56,0.8058
2286.57,0.8068
2287.58,0.807
2288.59,0.805
2289.6,0.803
2290.61,0.8037
2291.62,0.8037
2292.63,0.8037
2293.65,0.8049
2294.66,0.8058
2295.68,0.8057
2296.69,0.8055
2297.71,0.8043
2298.73,0.8052
2299.75,0.8061
2300.77,0.8051
2301.79,0.8039
2302.81,0.8049
2303.84,0.8068
2304.86,0.805
2305.88,0.8021
2306.91,0.8036
2307.94,0.8041
2308.96,0.8036
2309.99,0.803
2311.02,0.8056
2312.05,0.807
2313.08,0.8067
2314.12,0.8073
2315.15,0.8096
2316.18,0.8087
2317.22,0.8062
2318.25,0.8072
2319.29,0.8096
2320.33,0.809
2321.37,0.8086
2322.41,0.8085
2323.45,0.8102
2324.49,0.8119
2325.53,0.8135
2326.57,0.8119
2327.62,0.8118
2328.66,0.8124
2329.71,0.8137
2330.76,0.8138
2331.8,0.8155
2332.85,0.817
2333.9,0.8174
2334.95,0.8172
2336.01,0.8171
2337.06,0.8168
2338.11,0.8189
2339.17,0.8208
2340.22,0.8217
2341.28,0.8216
2342.34,0.8227
2343.39,0.8224
2344.45,0.8223
2345.51,0.823
2346.57,0.8237
2347.64,0.8246
2348.7,0.8249
2349.76,0.8239
2350.83,0.825
2351.9,0.8286
2352.96,0.83
2354.03,0.8295
2355.1,0.8302
2356.17,0.8305
2357.24,0.8327
2358.31,0.8328
2359.39,0.8334
2360.46,0.8344
2361.53,0.8355
2362.61,0.836
2363.69,0.8367
2364.76,0.8363
2365.84,0.8367
2366.92,0.8374
2368.0,0.8381
2369.09,0.837
2370.17,0.8369
2371.25,0.8379
2372.34,0.8396
2373.42,0.8408
2374.51,0.8416
2375.6,0.8422
2376.69,0.8416
2377.78,0.842
2378.87,0.843
2379.96,0.8445
2381.05,0.8451
2382.14,0.8437
2383.24,0.8444
2384.33,0.845
2385.43,0.8463
2386.53,0.8473
2387.63,0.848
2388.73,0.85
2389.83,0.8505
2390.93,0.8509
2392.03,0.8527
2393.14,0.8536
2394.24,0.8546
2395.35,0.855
2396.45,0.8548
2397.56,0.8565
2398.67,0.8588
2399.78,0.8585
2400.89,0.8586
2402.0,0.8582
2403.12,0.8588
2404.23,0.8599
2405.35,0.8622
2406.46,0.8643
2407.58,0.8641
2408.7,0.8633
2409.82,0.865
2410.94,0.8669
2412.06,0.869
2413.18,0.8702
2414.3,0.8706
2415.43,0.8698
2416.55,0.8713
2417.68,0.8713
2418.81,0.872
2419.94,0.8741
2421.07,0.8751
2422.2,0.8744
2423.33,0.8757
2424.46,0.8766
2425.6,0.8763
2426.73,0.8758
2427.87,0.8769
2429.0,0.8763
2430.14,0.8775
2431.28,0.879
2432.42,0.8782
2433.56,0.8775
2434.71,0.8788
2435.85,0.8785
2436.99,0.8785
2438.14,0.8792
2439.29,0.8803
2440.43,0.8804
2441.58,0.8799
2442.73,0.8794
2443.88,0.881
2445.04,0.8816
2446.19,0.8805
2447.34,0.8791
2448.5,0.8796
2449.66,0.8803
2450.81,0.8803
2451.97,0.8787
2453.13,0.8796
2454.29,0.88
2455.45,0.8801
2456.62,0.8807
2457.78,0.8815
2458.95,0.8803
2460.11,0.8813
2461.28,0.8812
2462.45,0.8799
2463.62,0.8785
2464.79,0.879
2465.96,0.88
2467.14,0.8798
2468.31,0.8789
2469.49,0.8795
2470.66,0.8786
2471.84,0.8788
2473.02,0.8798
2474.2,0.8805
2475.38,0.8798
2476.56,0.8794
2477.74,0.8785
2478.93,0.8791
2480.11,0.8794
2481.3,0.8802
2482.49,0.8808
2483.68,0.8808
2484.87,0.8786
2486.06,0.8774
2487.25,0.8781
2488.44,0.8797
2489.64,0.8792
2490.83,0.8801
2492.03,0.8815
2493.23,0.8805
2494.43,0.8788
2495.63,0.8789
2496.83,0.8791
2498.03,0.8803
2499.24,0.8814
2500.44,0.8813
2501.65,0.8804
2502.86,0.8799
2504.06,0.8793
2505.27,0.8796
2506.48,0.8794
2507.7,0.8798
2508.91,0.8798
2510.12,0.8793
2511.34,0.879
2512.56,0.8799
2513.77,0.8795
2514.99,0.8802
2516.21,0.881
2517.43,0.8824
2518.66,0.8817
2519.88,0.8813
2521.11,0.8806
2522.33,0.8813
2523.56,0.8813
2524.79,0.8813
2526.02,0.8813
2527.25,0.8824
2528.48,0.8845
2529.71,0.8843
2530.95,0.884
2532.18,0.8841
2533.42,0.8835
2534.66,0.8851
2535.9,0.8851
2537.14,0.8844
2538.38,0.8853
2539.62,0.8867
2540.87,0.8872
2542.11,0.8876
2543.36,0.8863
2544.61,0.8872
2545.86,0.8869
2547.11,0.8876
2548.36,0.8879
2549.61,0.8863
2550.87,0.8863
2552.12,0.8877
2553.38,0.8876
2554.64,0.8876
2555.89,0.8873
2557.16,0.8888
2558.42,0.8874
2559.68,0.8862
2560.94,0.8865
2562.21,0.8859
2563.48,0.8858
2564.74,0.8878
2566.01,0.8873
2567.28,0.8869
2568.55,0.8871
2569.83,0.887
2571.1,0.8874
2572.38,0.8874
2573.65,0.886
2574.93,0.8855
2576.21,0.8853
2577.49,0.8856
2578.77,0.8844
2580.05,0.8852
2581.34,0.8874
2582.62,0.8874
2583.91,0.8855
2585.2,0.8861
2586.49,0.8858
2587.78,0.8862
2589.07,0.8866
2590.36,0.8858
2591.66,0.8858
2592.95,0.8863
2594.25,0.8857
2595.55,0.886
2596.85,0.8859
2598.15,0.886
2599.45,0.8866
2600.76,0.8867
2602.06,0.8866
2603.37,0.8877
2604.67,0.8877
2605.98,0.8878
2607.29,0.8873
2608.6,0.8879
2609.92,0.8885
2611.23,0.8889
2612.55,0.8893
2613.86,0.8899
2615.18,0.8891
2616.5,0.8887
2617.82,0.8887
2619.14,0.8884
2620.47,0.8888
2621.79,0.8901
2623.12,0.8895
2624.45,0.8897
2625.77,0.8894
2627.1,0.8895
2628.44,0.8897
2629.77,0.8906
2631.1,0.8907
2632.44,0.8913
2633.78,0.8902
2635.11,0.8902
2636.45,0.8908
2637.79,0.8909
2639.14,0.8908
2640.48,0.8923
2641.83,0.8927
2643.17,0.8923
2644.52,0.892
2645.87,0.894
2647.22,0.8949
2648.57,0.8956
2649.92,0.8959
2651.28,0.8954
2652.64,0.8954
2653.99,0.8958
2655.35,0.8955
2656.71,0.8956
2658.07,0.8956
2659.44,0.8968
2660.8,0.8973
2662.17,0.8978
2663.53,0.8973
2664.9,0.8978
2666.27,0.8982
2667.64,0.8984
2669.02,0.899
2670.39,0.9005
2671.77,0.9018
2673.14,0.9019
2674.52,0.9017
2675.9,0.9016
2677.28,0.9034
2678.67,0.9053
2680.05,0.9057
2681.44,0.9067
2682.82,0.9075
2684.21,0.9084
2685.6,0.9087
2686.99,0.9109
2688.39,0.9129
2689.78,0.9132
2691.18,0.9142
2692.57,0.9168
2693.97,0.9174
2695.37,0.9182
2696.77,0.9195
2698.18,0.9214
2699.58,0.9229
2700.99,0.9239
2702.4,0.9261
2703.8,0.9277
2705.22,0.9281
2706.63,0.9292
2708.04,0.9286
2709.45,0.9294
2710.87,0.9304
2712.29,0.9322
2713.71,0.933
2715.13,0.9338
2716.55,0.934
2717.97,0.9344
2719.4,0.9353
2720.83,0.9375
2722.25,0.9387
2723.68,0.9385
2725.12,0.9382
2726.55,0.9398
2727.98,0.9411
2729.42,0.9417
2730.86,0.9425
2732.29,0.9431
2733.73,0.943
2735.18,0.9438
2736.62,0.9456
2738.06,0.9467
2739.51,0.9469
2740.96,0.9481
2742.41,0.9495
2743.86,0.9509
2745.31,0.9521
2746.77,0.953
2748.22,0.9529
2749.68,0.9535
2751.14,0.9537
2752.6,0.9549
2754.06,0.9562
2755.52,0.9562
2756.99,0.9561
2758.45,0.9577
2759.92,0.9592
2761.39,0.96
2762.86,0.9601
2764.33,0.961
2765.81,0.9619
2767.28,0.9624
2768.76,0.9629
2770.24,0.9638
2771.72,0.964
2773.2,0.9641
2774.69,0.9641
2776.17,0.9651
2777.66,0.9663
2779.15,0.967
2780.64,0.9672
2782.13,0.9683
2783.62,0.9687
2785.12,0.9684
2786.61,0.9676
2788.11,0.9687
2789.61,0.9701
2791.11,0.9697
2792.62,0.9683
2794.12,0.9695
2795.63,0.9704
2797.14,0.9715
2798.64,0.9722
2800.16,0.9723
2801.67,0.9719
2803.18,0.9723
2804.7,0.9724
2806.22,0.9729
2807.74,0.9728
2809.26,0.9719
2810.78,0.9722
2812.3,0.9741
2813.83,0.9749
2815.36,0.9741
2816.89,0.9735
2818.42,0.9744
2819.95,0.9754
2821.48,0.9756
2823.02,0.9755
2824.56,0.9759
2826.1,0.976
2827.64,0.9766
2829.18,0.9764
2830.72,0.9762
2832.27,0.9761
2833.82,0.9767
2835.37,0.9768
2836.92,0.9773
2838.47,0.9779
2840.02,0.9783
2841.58,0.9787
2843.14,0.9786
2844.7,0.9783
2846.26,0.9778
2847.82,0.9767
2849.39,0.9775
2850.95,0.978
2852.52,0.9786
2854.09,0.9788
2855.66,0.9779
2857.24,0.9771
2858.81,0.9783
2860.39,0.9791
2861.97,0.9799
2863.55,0.9804
2865.13,0.9796
2866.71,0.9783
2868.3,0.9787
2869.88,0.9798
2871.47,0.98
2873.06,0.9796
2874.66,0.9787
2876.25,0.9779
2877.85,0.978
2879.45,0.9781
2881.04,0.9793
2882.65,0.9788
2884.25,0.9794
2885.85,0.9791
2887.46,0.9785
2889.07,0.9782
2890.68,0.9785
2892.29,0.9791
2893.91,0.9797
2895.52,0.9791
2897.14,0.9792
2898.76,0.9794
2900.38,0.9789
2902.0,0.9789
2903.63,0.979
2905.25,0.9785
2906.88,0.978
2908.51,0.9778
2910.14,0.9786
2911.78,0.9795
2913.41,0.98
2915.05,0.9801
2916.69,0.9791
2918.33,0.9781
2919.98,0.9787
2921.62,0.9792
2923.27,0.9792
2924.92,0.9784
2926.57,0.9787
2928.22,0.9783
2929.87,0.9775
2931.53,0.9779
2933.19,0.9779
2934.85,0.9777
2936.51,0.9785
2938.17,0.9783
2939.84,0.9784
2941.51,0.9788
2943.18,0.9789
2944.85,0.9781
2946.52,0.9782
2948.19,0.9789
2949.87,0.9794
2951.55,0.9791
2953.23,0.9794
2954.91,0.9792
2956.6,0.9785
2958.28,0.9787
2959.97,0.9794
2961.66,0.9791
2963.36,0.979
2965.05,0.9787
2966.75,0.9786
2968.44,0.9778
2970.14,0.9781
2971.85,0.979
2973.55,0.9794
2975.26,0.9782
2976.96,0.9786
2978.67,0.9786
2980.39,0.9773
2982.1,0.9775
2983.82,0.9792
2985.53,0.9792
2987.25,0.9783
2988.97,0.9773
2990.7,0.9771
2992.42,0.9778
2994.15,0.9788
2995.88,0.9789
2997.61,0.9783
2999.35,0.9778
3001.08,0.9778
3002.82,0.9777
3004.56,0.978
3006.3,0.9783
3008.04,0.9784
3009.79,0.9777
3011.54,0.9779
3013.29,0.9776
3015.04,0.9771
3016.79,0.9765
3018.55,0.977
3020.31,0.9773
3022.07,0.9776
3023.83,0.9775
3025.59,0.977
3027.36,0.9771
3029.13,0.9772
3030.9,0.9772
3032.67,0.9778
3034.44,0.9776
3036.22,0.9775
3038.0,0.977
3039.78,0.9769
3041.56,0.9772
3043.35,0.9775
3045.14,0.9773
3046.92,0.9774
3048.72,0.9773
3050.51,0.9771
3052.3,0.977
3054.1,0.9772
3055.9,0.9766
3057.7,0.9762
3059.51,0.9767
3061.31,0.9777
3063.12,0.9778
3064.93,0.9777
3066.74,0.977
3068.56,0.9768
3070.37,0.9771
3072.19,0.9771
3074.01,0.9764
3075.84,0.9764
3077.66,0.9765
3079.49,0.9769
3081.32,0.9772
3083.15,0.9772
3084.99,0.9765
3086.82,0.9762
3088.66,0.9759
3090.5,0.9766
3092.34,0.977
3094.19,0.9769
3096.04,0.9763
3097.89,0.9763
3099.74,0.9758
3101.59,0.9757
3103.45,0.976
3105.31,0.976
3107.17,0.9759
3109.03,0.9761
3110.89,0.9763
3112.76,0.9764
3114.63,0.9757
3116.5,0.9753
3118.38,0.9754
3120.25,0.9759
3122.13,0.9752
3124.01,0.9748
3125.89,0.9749
3127.78,0.9752
3129.67,0.9746
3131.56,0.9747
3133.45,0.9747
3135.34,0.9741
3137.24,0.9739
3139.14,0.9738
3141.04,0.9735
3142.94,0.9741
3144.85,0.9738
3146.76,0.9734
3148.67,0.9733
3150.58,0.9733
3152.5,0.9729
3154.41,0.9732
3156.33,0.973
3158.25,0.9726
3160.18,0.9723
3162.11,0.9728
3164.04,0.9724
3165.97,0.9726
3167.9,0.9723
3169.84,0.9717
3171.78,0.9716
3173.72,0.9719
3175.66,0.9721
3177.61,0.972
3179.55,0.9716
3181.5,0.9718
3183.46,0.9722
3185.41,0.972
3187.37,0.9717
3189.33,0.9716
3191.29,0.9715
3193.26,0.9718
3195.23,0.9717
3197.2,0.9719
3199.17,0.9718
3201.14,0.9718
3203.12,0.9715
3205.1,0.971
3207.08,0.9709
3209.07,0.9711
3211.05,0.9714
3213.04,0.9715
3215.03,0.9715
3217.03,0.9714
3219.03,0.9711
3221.02,0.9711
3223.03,0.9709
3225.03,0.9712
3227.04,0.971
3229.05,0.9711
3231.06,0.971
3233.07,0.971
3235.09,0.9703
3237.11,0.9698
3239.13,0.97
3241.15,0.9707
3243.18,0.9705
3245.21,0.9703
3247.24,0.9702
3249.28,0.9704
3251.31,0.9703
3253.35,0.9701
3255.4,0.97
3257.44,0.9702
3259.49,0.9701
3261.54,0.9699
3263.59,0.9694
3265.65,0.9693
3267.7,0.9693
3269.76,0.9693
3271.83,0.9692
3273.89,0.9691
3275.96,0.9691
3278.03,0.9694
3280.1,0.9693
3282.18,0.9693
3284.26,0.9691
3286.34,0.9695
3288.42,0.969
3290.51,0.9682
3292.6,0.968
3294.69,0.9682
3296.78,0.9678
3298.88,0.9682
3300.98,0.9681
3303.08,0.968
3305.19,0.9679
3307.3,0.9681
3309.41,0.968
3311.52,0.9681
3313.64,0.9678
3315.75,0.9675
3317.88,0.9671
3320.0,0.9671
3322.13,0.9673
3324.26,0.9673
3326.39,0.9669
3328.52,0.9669
3330.66,0.9664
3332.8,0.9659
3334.94,0.9656
3337.09,0.966
3339.24,0.9659
3341.39,0.9659
3343.54,0.966
3345.7,0.9662
3347.86,0.9658
3350.02,0.9657
3352.19,0.9658
3354.36,0.9651
3356.53,0.9644
3358.7,0.9645
3360.88,0.9647
3363.06,0.9643
3365.24,0.9636
3367.43,0.9639
3369.61,0.9643
3371.8,0.9637
3374.0,0.9629
3376.19,0.9629
3378.39,0.9629
3380.6,0.9628
3382.8,0.9627
3385.01,0.9628
3387.22,0.9624
3389.43,0.9624
3391.65,0.9623
3393.87,0.9624
3396.09,0.9622
3398.32,0.9618
3400.55,0.9608
3402.78,0.9605
3405.01,0.9606
3407.25,0.9605
3409.49,0.9607
3411.73,0.9611
3413.98,0.9601
3416.23,0.9596
3418.48,0.9589
3420.73,0.9586
3422.99,0.9585
3425.25,0.9587
3427.51,0.9589
3429.78,0.9587
3432.05,0.9584
3434.32,0.9585
3436.6,0.9581
3438.88,0.9579
3441.16,0.9578
3443.45,0.9576
3445.73,0.9576
3448.02,0.9573
3450.32,0.957
3452.61,0.9569
3454.91,0.9566
3457.22,0.9564
3459.52,0.9566
3461.83,0.9568
3464.15,0.9561
3466.46,0.956
3468.78,0.9557
3471.1,0.9552
3473.43,0.9546
3475.75,0.9552
3478.09,0.955
3480.42,0.9545
3482.76,0.9536
3485.1,0.9532
3487.44,0.9528
3489.79,0.9529
3492.14,0.9527
3494.49,0.9521
3496.85,0.952
3499.21,0.9517
3501.57,0.9511
3503.93,0.9509
3506.3,0.9504
3508.68,0.9503
3511.05,0.9502
3513.43,0.9502
3515.81,0.95
3518.2,0.9498
3520.58,0.9495
3522.98,0.9497
3525.37,0.9496
3527.77,0.9494
3530.17,0.9491
3532.57,0.949
3534.98,0.9489
3537.39,0.9487
3539.81,0.9484
3542.23,0.9482
3544.65,0.9476
3547.07,0.947
3549.5,0.9466
3551.93,0.9466
3554.36,0.9461
3556.8,0.9462
3559.24,0.946
3561.69,0.946
3564.14,0.9457
3566.59,0.9452
3569.04,0.945
3571.5,0.9451
3573.96,0.9446
3576.42,0.9444
3578.89,0.9438
3581.36,0.9434
3583.84,0.9433
3586.32,0.9435
3588.8,0.9433
3591.28,0.9433
3593.77,0.9431
3596.26,0.943
3598.76,0.9427
3601.26,0.9425
3603.76,0.9417
3606.27,0.9412
3608.78,0.941
3611.29,0.9414
3613.81,0.9411
3616.33,0.9407
3618.85,0.9402
3621.38,0.9404
3623.91,0.9407
3626.44,0.9408
3628.98,0.9401
3631.52,0.9394
3634.06,0.9392
3636.61,0.939
3639.16,0.9386
3641.72,0.9387
3644.28,0.9388
3646.84,0.9383
3649.41,0.9381
3651.98,0.9379
3654.55,0.9376
3657.13,0.9375
3659.71,0.9375
3662.29,0.9377
3664.88,0.9374
3667.47,0.9369
3670.07,0.9362
3672.67,0.9359
3675.27,0.9357
3677.88,0.9358
3680.49,0.9358
3683.1,0.936
3685.72,0.9356
3688.34,0.9353
3690.96,0.9352
3693.59,0.9352
3696.23,0.9349
3698.86,0.9349
3701.5,0.9349
3704.15,0.9348
3706.79,0.9348
3709.44,0.9348
3712.1,0.9346
3714.76,0.9342
3717.42,0.9342
3720.09,0.9346
3722.76,0.9346
3725.43,0.9343
3728.11,0.934
3730.79,0.934
3733.48,0.9337
3736.17,0.9338
3738.86,0.9338
3741.56,0.9341
3744.26,0.9341
3746.97,0.9336
3749.67,0.9334
3752.39,0.9333
3755.1,0.9333
3757.83,0.9335
3760.55,0.9333
3763.28,0.9334
3766.01,0.9335
3768.75,0.9339
3771.49,0.9336
3774.23,0.9332
3776.98,0.9327
3779.74,0.9328
3782.49,0.9325
3785.25,0.9325
3788.02,0.9329
3790.79,0.9332
3793.56,0.9328
3796.34,0.9323
3799.12,0.932
3801.9,0.9321
3804.69,0.932
3807.48,0.9324
3810.28,0.9325
3813.08,0.932
3815.89,0.9314
3818.7,0.9318
3821.51,0.9319
3824.33,0.9318
3827.15,0.9313
3829.98,0.931
3832.81,0.9309
3835.64,0.9313
3838.48,0.9313
3841.33,0.9315
3844.17,0.9314
3847.03,0.9313
3849.88,0.931
3852.74,0.931
3855.61,0.9311
3858.47,0.9313
3861.35,0.9312
3864.22,0.9309
3867.11,0.931
3869.99,0.9311
3872.88,0.9307
3875.78,0.9308
3878.67,0.931
3881.58,0.9312
3884.48,0.9305
3887.4,0.9302
3890.31,0.9304
3893.23,0.9306
3896.16,0.9304
3899.09,0.93
3902.02,0.9299
3904.96,0.9305
3907.9,0.9308
3910.85,0.9308
3913.8,0.9308
3916.76,0.9312
3919.72,0.9312
3922.68,0.931
3925.65,0.9304
3928.62,0.9303
3931.6,0.9305
3934.58,0.9308
3937.57,0.9312
3940.56,0.9315
3943.56,0.9311
3946.56,0.9311
3949.57,0.9315
3952.58,0.9318
3955.59,0.9317
3958.61,0.9317
3961.63,0.9316
3964.66,0.932
3967.7,0.9324
3970.73,0.9324
3973.78,0.9322
3976.82,0.9324
3979.88,0.9325
3982.93,0.9326
3985.99,0.9328
3989.06,0.9333
3992.13,0.9333
3995.21,0.9334
3998.29,0.9337
4001.37,0.9339
4004.46,0.9337
4007.55,0.9336
4010.65,0.9336
4013.76,0.9339
4016.87,0.9344
4019.98,0.9344
4023.1,0.9344
4026.22,0.935
4029.35,0.9354
4032.48,0.9356
4035.62,0.9354
4038.76,0.9352
4041.91,0.9353
4045.06,0.936
4048.22,0.9364
4051.38,0.9365
4054.55,0.9363
4057.72,0.9363
4060.9,0.936
4064.08,0.9364
4067.27,0.9368
4070.46,0.937
4073.66,0.937
4076.86,0.9371
4080.07,0.9374
4083.28,0.9376
4086.5,0.9375
4089.72,0.9379
4092.95,0.9384
4096.18,0.9387
4099.42,0.9383
4102.66,0.9384
4105.91,0.9384
4109.16,0.9387
4112.42,0.9392
4115.69,0.9395
4118.96,0.94
4122.23,0.9404
4125.51,0.9402
4128.79,0.9401
4132.08,0.94
4135.38,0.9406
4138.68,0.9407
4141.98,0.9407
4145.29,0.9411
4148.61,0.9412
