Database of Origin,University of Winnipeg Spectrophotometer Facility
Sample Description,8. Sulfates - Jim Crowley (USGS) IR spectra /  Crowley IR spectra
Date Added,2016-07-15 22:04:24.291335

Data ID,CWL_SUL_24          
Sample ID,Thenardite
Mineral Name,Thenardite
Locality,"Saline Valley, CA"
Grain Size,~250
Viewing Geometry,unknown
Resolution,0.08-40
Material Class,Sulfate

Wavelength
2083.55,0.548
2084.39,0.5459
2085.23,0.5462
2086.06,0.5494
2086.9,0.5503
2087.74,0.5472
2088.58,0.5452
2089.43,0.5453
2090.27,0.5449
2091.11,0.5476
2091.95,0.5487
2092.8,0.5469
2093.64,0.5486
2094.49,0.5486
2095.33,0.5501
2096.18,0.5481
2097.03,0.5475
2097.88,0.5472
2098.73,0.5481
2099.58,0.5489
2100.43,0.5509
2101.28,0.552
2102.13,0.549
2102.98,0.5462
2103.83,0.5476
2104.69,0.5488
2105.54,0.5493
2106.4,0.548
2107.25,0.547
2108.11,0.5471
2108.97,0.5475
2109.83,0.5451
2110.68,0.5458
2111.54,0.5468
2112.4,0.5492
2113.27,0.5515
2114.13,0.5508
2114.99,0.5513
2115.85,0.5506
2116.72,0.5475
2117.58,0.5465
2118.44,0.5444
2119.31,0.5432
2120.18,0.5463
2121.04,0.5471
2121.91,0.547
2122.78,0.5485
2123.65,0.5484
2124.52,0.5502
2125.39,0.5485
2126.26,0.5478
2127.13,0.5475
2128.01,0.5473
2128.88,0.5461
2129.75,0.5465
2130.63,0.5465
2131.5,0.5445
2132.38,0.5449
2133.26,0.547
2134.14,0.549
2135.01,0.5483
2135.89,0.5472
2136.77,0.5464
2137.65,0.5445
2138.54,0.5451
2139.42,0.5458
2140.3,0.5442
2141.18,0.544
2142.07,0.5461
2142.95,0.5451
2143.84,0.5442
2144.73,0.5447
2145.61,0.5463
2146.5,0.5455
2147.39,0.5466
2148.28,0.5465
2149.17,0.544
2150.06,0.5425
2150.95,0.5453
2151.85,0.5474
2152.74,0.5473
2153.63,0.5466
2154.53,0.546
2155.42,0.5444
2156.32,0.546
2157.22,0.5463
2158.11,0.5448
2159.01,0.5455
2159.91,0.5467
2160.81,0.544
2161.71,0.5434
2162.61,0.5437
2163.52,0.545
2164.42,0.545
2165.32,0.5454
2166.23,0.5432
2167.13,0.5426
2168.04,0.5432
2168.94,0.5424
2169.85,0.5432
2170.76,0.5428
2171.67,0.5416
2172.58,0.5427
2173.49,0.547
2174.4,0.5471
2175.31,0.5441
2176.23,0.5428
2177.14,0.5446
2178.05,0.546
2178.97,0.5443
2179.89,0.5435
2180.8,0.5449
2181.72,0.5457
2182.64,0.5451
2183.56,0.5447
2184.48,0.5424
2185.4,0.5439
2186.32,0.5456
2187.24,0.5449
2188.16,0.5439
2189.09,0.5425
2190.01,0.5426
2190.94,0.5437
2191.86,0.546
2192.79,0.546
2193.72,0.5445
2194.64,0.5444
2195.57,0.545
2196.5,0.5486
2197.43,0.5483
2198.37,0.5465
2199.3,0.5464
2200.23,0.5452
2201.16,0.5439
2202.1,0.5447
2203.03,0.5457
2203.97,0.5453
2204.91,0.5468
2205.85,0.5474
2206.78,0.5475
2207.72,0.5481
2208.66,0.5471
2209.61,0.5467
2210.55,0.5472
2211.49,0.5465
2212.43,0.5474
2213.38,0.5503
2214.32,0.5517
2215.27,0.5492
2216.21,0.5466
2217.16,0.5441
2218.11,0.544
2219.06,0.5472
2220.01,0.5473
2220.96,0.5452
2221.91,0.5448
2222.86,0.5455
2223.82,0.5462
2224.77,0.5463
2225.73,0.5457
2226.68,0.5456
2227.64,0.5436
2228.6,0.5431
2229.55,0.5444
2230.51,0.5441
2231.47,0.5438
2232.43,0.5436
2233.39,0.5439
2234.36,0.5422
2235.32,0.5403
2236.28,0.5401
2237.25,0.5403
2238.21,0.5404
2239.18,0.5397
2240.15,0.542
2241.12,0.541
2242.08,0.5392
2243.05,0.5376
2244.02,0.5398
2245.0,0.5416
2245.97,0.5414
2246.94,0.542
2247.91,0.5431
2248.89,0.5411
2249.87,0.5398
2250.84,0.5394
2251.82,0.5401
2252.8,0.5409
2253.78,0.5406
2254.76,0.5401
2255.74,0.5396
2256.72,0.5399
2257.7,0.5422
2258.68,0.5418
2259.67,0.5417
2260.65,0.5405
2261.64,0.5418
2262.63,0.542
2263.61,0.5424
2264.6,0.5407
2265.59,0.5377
2266.58,0.5384
2267.57,0.5415
2268.56,0.5418
2269.56,0.5419
2270.55,0.5406
2271.55,0.5399
2272.54,0.5402
2273.54,0.5408
2274.53,0.5408
2275.53,0.5405
2276.53,0.5393
2277.53,0.5401
2278.53,0.5411
2279.53,0.5435
2280.54,0.544
2281.54,0.5436
2282.54,0.5446
2283.55,0.5432
2284.55,0.5434
2285.56,0.5462
2286.57,0.5468
2287.58,0.5457
2288.59,0.5443
2289.6,0.5451
2290.61,0.5464
2291.62,0.5469
2292.63,0.5484
2293.65,0.551
2294.66,0.5522
2295.68,0.552
2296.69,0.5506
2297.71,0.5494
2298.73,0.5491
2299.75,0.5503
2300.77,0.5496
2301.79,0.5518
2302.81,0.5534
2303.84,0.5531
2304.86,0.5521
2305.88,0.5529
2306.91,0.5545
2307.94,0.5566
2308.96,0.5578
2309.99,0.5588
2311.02,0.5589
2312.05,0.5595
2313.08,0.5599
2314.12,0.5606
2315.15,0.5588
2316.18,0.5591
2317.22,0.5605
2318.25,0.5634
2319.29,0.5648
2320.33,0.565
2321.37,0.5641
2322.41,0.5636
2323.45,0.5638
2324.49,0.5641
2325.53,0.5648
2326.57,0.5642
2327.62,0.5648
2328.66,0.5664
2329.71,0.5656
2330.76,0.5662
2331.8,0.5683
2332.85,0.5683
2333.9,0.5672
2334.95,0.5679
2336.01,0.5694
2337.06,0.5706
2338.11,0.5717
2339.17,0.573
2340.22,0.5759
2341.28,0.5768
2342.34,0.5758
2343.39,0.5765
2344.45,0.5758
2345.51,0.5759
2346.57,0.577
2347.64,0.5789
2348.7,0.5795
2349.76,0.5804
2350.83,0.5818
2351.9,0.5827
2352.96,0.5831
2354.03,0.5848
2355.1,0.5881
2356.17,0.5895
2357.24,0.5891
2358.31,0.5903
2359.39,0.5902
2360.46,0.5898
2361.53,0.5915
2362.61,0.5928
2363.69,0.5933
2364.76,0.5938
2365.84,0.5947
2366.92,0.5961
2368.0,0.5972
2369.09,0.5985
2370.17,0.6004
2371.25,0.6008
2372.34,0.5997
2373.42,0.6012
2374.51,0.6032
2375.6,0.6034
2376.69,0.6034
2377.78,0.6046
2378.87,0.6053
2379.96,0.6068
2381.05,0.6073
2382.14,0.6074
2383.24,0.6095
2384.33,0.6113
2385.43,0.6116
2386.53,0.6125
2387.63,0.6141
2388.73,0.6156
2389.83,0.6172
2390.93,0.6186
2392.03,0.6199
2393.14,0.6211
2394.24,0.6216
2395.35,0.622
2396.45,0.6236
2397.56,0.6251
2398.67,0.6259
2399.78,0.6246
2400.89,0.6252
2402.0,0.6288
2403.12,0.6309
2404.23,0.6314
2405.35,0.6341
2406.46,0.6371
2407.58,0.6365
2408.7,0.6355
2409.82,0.6369
2410.94,0.6415
2412.06,0.6431
2413.18,0.6426
2414.3,0.644
2415.43,0.6461
2416.55,0.6462
2417.68,0.6462
2418.81,0.6465
2419.94,0.6495
2421.07,0.6506
2422.2,0.651
2423.33,0.6525
2424.46,0.6546
2425.6,0.6542
2426.73,0.6546
2427.87,0.6552
2429.0,0.6565
2430.14,0.6575
2431.28,0.6566
2432.42,0.658
2433.56,0.6601
2434.71,0.66
2435.85,0.6608
2436.99,0.6616
2438.14,0.6607
2439.29,0.6617
2440.43,0.6629
2441.58,0.6607
2442.73,0.6594
2443.88,0.6603
2445.04,0.663
2446.19,0.6641
2447.34,0.6636
2448.5,0.6614
2449.66,0.6609
2450.81,0.6616
2451.97,0.6629
2453.13,0.6641
2454.29,0.6646
2455.45,0.6641
2456.62,0.6655
2457.78,0.6655
2458.95,0.6649
2460.11,0.6642
2461.28,0.6638
2462.45,0.6645
2463.62,0.6656
2464.79,0.666
2465.96,0.6664
2467.14,0.6657
2468.31,0.667
2469.49,0.6679
2470.66,0.6676
2471.84,0.6646
2473.02,0.6628
2474.2,0.6641
2475.38,0.6664
2476.56,0.6661
2477.74,0.6659
2478.93,0.6659
2480.11,0.6668
2481.3,0.6674
2482.49,0.667
2483.68,0.666
2484.87,0.6655
2486.06,0.6654
2487.25,0.6669
2488.44,0.666
2489.64,0.6651
2490.83,0.668
2492.03,0.6706
2493.23,0.6687
2494.43,0.6673
2495.63,0.6678
2496.83,0.6686
2498.03,0.6691
2499.24,0.669
2500.44,0.6685
2501.65,0.6699
2502.86,0.6683
2504.06,0.6675
2505.27,0.6687
2506.48,0.6692
2507.7,0.6699
2508.91,0.6712
2510.12,0.6707
2511.34,0.6703
2512.56,0.6712
2513.77,0.6705
2514.99,0.6696
2516.21,0.6706
2517.43,0.6717
2518.66,0.6715
2519.88,0.6712
2521.11,0.672
2522.33,0.6724
2523.56,0.6723
2524.79,0.6718
2526.02,0.6716
2527.25,0.6721
2528.48,0.6755
2529.71,0.6765
2530.95,0.6761
2532.18,0.676
2533.42,0.6761
2534.66,0.6766
2535.9,0.6773
2537.14,0.679
2538.38,0.6799
2539.62,0.6787
2540.87,0.679
2542.11,0.6797
2543.36,0.6812
2544.61,0.6823
2545.86,0.6823
2547.11,0.6809
2548.36,0.6808
2549.61,0.6817
2550.87,0.683
2552.12,0.6829
2553.38,0.684
2554.64,0.6845
2555.89,0.6856
2557.16,0.6853
2558.42,0.6836
2559.68,0.6835
2560.94,0.684
2562.21,0.6839
2563.48,0.6844
2564.74,0.6859
2566.01,0.6861
2567.28,0.6848
2568.55,0.6849
2569.83,0.685
2571.1,0.6834
2572.38,0.683
2573.65,0.6836
2574.93,0.6839
2576.21,0.6833
2577.49,0.6839
2578.77,0.6854
2580.05,0.685
2581.34,0.6821
2582.62,0.68
2583.91,0.6819
2585.2,0.6831
2586.49,0.6819
2587.78,0.682
2589.07,0.6833
2590.36,0.6832
2591.66,0.6827
2592.95,0.6809
2594.25,0.6797
2595.55,0.6797
2596.85,0.6812
2598.15,0.6818
2599.45,0.6826
2600.76,0.6836
2602.06,0.6844
2603.37,0.6833
2604.67,0.6822
2605.98,0.6814
2607.29,0.6826
2608.6,0.6827
2609.92,0.6839
2611.23,0.6853
2612.55,0.6867
2613.86,0.6882
2615.18,0.6885
2616.5,0.6865
2617.82,0.6861
2619.14,0.6861
2620.47,0.6873
2621.79,0.6895
2623.12,0.6913
2624.45,0.6898
2625.77,0.6885
2627.1,0.6888
2628.44,0.689
2629.77,0.6892
2631.1,0.691
2632.44,0.6925
2633.78,0.6936
2635.11,0.6948
2636.45,0.6954
2637.79,0.6955
2639.14,0.6953
2640.48,0.6964
2641.83,0.698
2643.17,0.698
2644.52,0.6991
2645.87,0.7002
2647.22,0.7011
2648.57,0.7019
2649.92,0.7025
2651.28,0.7025
2652.64,0.704
2653.99,0.7062
2655.35,0.7078
2656.71,0.7086
2658.07,0.7096
2659.44,0.7114
2660.8,0.7131
2662.17,0.7139
2663.53,0.7152
2664.9,0.7162
2666.27,0.7176
2667.64,0.7185
2669.02,0.7197
2670.39,0.722
2671.77,0.7247
2673.14,0.7271
2674.52,0.7298
2675.9,0.7317
2677.28,0.734
2678.67,0.7362
2680.05,0.7388
2681.44,0.7424
2682.82,0.7457
2684.21,0.7485
2685.6,0.7521
2686.99,0.7557
2688.39,0.7613
2689.78,0.7669
2691.18,0.7711
2692.57,0.7745
2693.97,0.7801
2695.37,0.7855
2696.77,0.791
2698.18,0.7969
2699.58,0.8016
2700.99,0.8062
2702.4,0.8124
2703.8,0.8176
2705.22,0.8209
2706.63,0.8226
2708.04,0.8248
2709.45,0.8273
2710.87,0.8306
2712.29,0.8349
2713.71,0.8391
2715.13,0.8436
2716.55,0.849
2717.97,0.8527
2719.4,0.8548
2720.83,0.8558
2722.25,0.8574
2723.68,0.8592
2725.12,0.863
2726.55,0.8663
2727.98,0.868
2729.42,0.8703
2730.86,0.8732
2732.29,0.8759
2733.73,0.8785
2735.18,0.8808
2736.62,0.884
2738.06,0.8861
2739.51,0.8883
2740.96,0.8909
2742.41,0.8938
2743.86,0.895
2745.31,0.8963
2746.77,0.8988
2748.22,0.9016
2749.68,0.9037
2751.14,0.9056
2752.6,0.9065
2754.06,0.9079
2755.52,0.9099
2756.99,0.9117
2758.45,0.913
2759.92,0.9148
2761.39,0.9162
2762.86,0.9168
2764.33,0.917
2765.81,0.9168
2767.28,0.9163
2768.76,0.9173
2770.24,0.9185
2771.72,0.9198
2773.2,0.9199
2774.69,0.9205
2776.17,0.9208
2777.66,0.9212
2779.15,0.9214
2780.64,0.9231
2782.13,0.9235
2783.62,0.9237
2785.12,0.9236
2786.61,0.9234
2788.11,0.9241
2789.61,0.9258
2791.11,0.9269
2792.62,0.9278
2794.12,0.928
2795.63,0.9271
2797.14,0.9264
2798.64,0.9281
2800.16,0.9295
2801.67,0.9298
2803.18,0.9297
2804.7,0.9311
2806.22,0.9316
2807.74,0.9322
2809.26,0.933
2810.78,0.9338
2812.3,0.9337
2813.83,0.9342
2815.36,0.9347
2816.89,0.9352
2818.42,0.935
2819.95,0.9351
2821.48,0.9358
2823.02,0.9376
2824.56,0.9374
2826.1,0.937
2827.64,0.9374
2829.18,0.9386
2830.72,0.9388
2832.27,0.9388
2833.82,0.9387
2835.37,0.9394
2836.92,0.9402
2838.47,0.9406
2840.02,0.9398
2841.58,0.9388
2843.14,0.9387
2844.7,0.9402
2846.26,0.9413
2847.82,0.9421
2849.39,0.9422
2850.95,0.9422
2852.52,0.9426
2854.09,0.943
2855.66,0.943
2857.24,0.9431
2858.81,0.9434
2860.39,0.9435
2861.97,0.9437
2863.55,0.9446
2865.13,0.9444
2866.71,0.9434
2868.3,0.9432
2869.88,0.9445
2871.47,0.9446
2873.06,0.9444
2874.66,0.944
2876.25,0.9445
2877.85,0.9449
2879.45,0.9459
2881.04,0.9459
2882.65,0.9464
2884.25,0.9468
2885.85,0.9464
2887.46,0.9449
2889.07,0.9449
2890.68,0.9461
2892.29,0.9466
2893.91,0.9461
2895.52,0.947
2897.14,0.948
2898.76,0.9476
2900.38,0.9468
2902.0,0.9473
2903.63,0.9476
2905.25,0.9476
2906.88,0.9474
2908.51,0.9481
2910.14,0.9483
2911.78,0.9483
2913.41,0.9484
2915.05,0.9485
2916.69,0.9484
2918.33,0.9491
2919.98,0.9487
2921.62,0.9485
2923.27,0.9484
2924.92,0.9482
2926.57,0.9478
2928.22,0.9479
2929.87,0.948
2931.53,0.9489
2933.19,0.949
2934.85,0.9495
2936.51,0.95
2938.17,0.9502
2939.84,0.9499
2941.51,0.9496
2943.18,0.9495
2944.85,0.9495
2946.52,0.9489
2948.19,0.9486
2949.87,0.9489
2951.55,0.9495
2953.23,0.9487
2954.91,0.9485
2956.6,0.9483
2958.28,0.9484
2959.97,0.949
2961.66,0.9489
2963.36,0.9482
2965.05,0.9482
2966.75,0.9482
2968.44,0.9488
2970.14,0.9487
2971.85,0.9477
2973.55,0.9473
2975.26,0.9477
2976.96,0.9475
2978.67,0.9475
2980.39,0.9472
2982.1,0.947
2983.82,0.9468
2985.53,0.9466
2987.25,0.9462
2988.97,0.9464
2990.7,0.9463
2992.42,0.9463
2994.15,0.9468
2995.88,0.9473
2997.61,0.9461
2999.35,0.9463
3001.08,0.9466
3002.82,0.9458
3004.56,0.9448
3006.3,0.9451
3008.04,0.9452
3009.79,0.9451
3011.54,0.945
3013.29,0.9453
3015.04,0.9456
3016.79,0.9451
3018.55,0.944
3020.31,0.9436
3022.07,0.9442
3023.83,0.9448
3025.59,0.9441
3027.36,0.9432
3029.13,0.9431
3030.9,0.9438
3032.67,0.9441
3034.44,0.9441
3036.22,0.9432
3038.0,0.9431
3039.78,0.9436
3041.56,0.9437
3043.35,0.9439
3045.14,0.9442
3046.92,0.9431
3048.72,0.9426
3050.51,0.9423
3052.3,0.9427
3054.1,0.9426
3055.9,0.9419
3057.7,0.9421
3059.51,0.9426
3061.31,0.9423
3063.12,0.942
3064.93,0.9412
3066.74,0.9415
3068.56,0.9418
3070.37,0.9418
3072.19,0.9418
3074.01,0.9419
3075.84,0.9418
3077.66,0.9417
3079.49,0.9411
3081.32,0.941
3083.15,0.9408
3084.99,0.9412
3086.82,0.9414
3088.66,0.9411
3090.5,0.9411
3092.34,0.9414
3094.19,0.9415
3096.04,0.941
3097.89,0.94
3099.74,0.9397
3101.59,0.9398
3103.45,0.9404
3105.31,0.9397
3107.17,0.9389
3109.03,0.9395
3110.89,0.9399
3112.76,0.9391
3114.63,0.9389
3116.5,0.9394
3118.38,0.9394
3120.25,0.9391
3122.13,0.939
3124.01,0.9383
3125.89,0.9383
3127.78,0.939
3129.67,0.9391
3131.56,0.9383
3133.45,0.938
3135.34,0.9384
3137.24,0.9384
3139.14,0.9377
3141.04,0.9374
3142.94,0.9373
3144.85,0.9371
3146.76,0.9367
3148.67,0.9362
3150.58,0.9361
3152.5,0.9359
3154.41,0.9354
3156.33,0.9356
3158.25,0.9354
3160.18,0.9349
3162.11,0.934
3164.04,0.9334
3165.97,0.9331
3167.9,0.9332
3169.84,0.9328
3171.78,0.9321
3173.72,0.9315
3175.66,0.9315
3177.61,0.9308
3179.55,0.9302
3181.5,0.9299
3183.46,0.9297
3185.41,0.9296
3187.37,0.9296
3189.33,0.9291
3191.29,0.9287
3193.26,0.928
3195.23,0.9273
3197.2,0.9268
3199.17,0.9264
3201.14,0.9262
3203.12,0.9262
3205.1,0.9256
3207.08,0.9256
3209.07,0.9252
3211.05,0.9249
3213.04,0.9248
3215.03,0.925
3217.03,0.9244
3219.03,0.9242
3221.02,0.9239
3223.03,0.9236
3225.03,0.9236
3227.04,0.9232
3229.05,0.9225
3231.06,0.9225
3233.07,0.9225
3235.09,0.9223
3237.11,0.9216
3239.13,0.9209
3241.15,0.9207
3243.18,0.9203
3245.21,0.92
3247.24,0.9198
3249.28,0.9194
3251.31,0.9191
3253.35,0.9186
3255.4,0.9187
3257.44,0.918
3259.49,0.9178
3261.54,0.9176
3263.59,0.9168
3265.65,0.9161
3267.7,0.9162
3269.76,0.916
3271.83,0.9156
3273.89,0.9151
3275.96,0.9152
3278.03,0.915
3280.1,0.9147
3282.18,0.9146
3284.26,0.9147
3286.34,0.9141
3288.42,0.9129
3290.51,0.912
3292.6,0.9119
3294.69,0.9116
3296.78,0.9114
3298.88,0.9112
3300.98,0.9111
3303.08,0.9105
3305.19,0.9101
3307.3,0.9096
3309.41,0.9091
3311.52,0.9084
3313.64,0.908
3315.75,0.9074
3317.88,0.9069
3320.0,0.9065
3322.13,0.9065
3324.26,0.9062
3326.39,0.9054
3328.52,0.9046
3330.66,0.9046
3332.8,0.9046
3334.94,0.9036
3337.09,0.9026
3339.24,0.9026
3341.39,0.9024
3343.54,0.9018
3345.7,0.9011
3347.86,0.9004
3350.02,0.8994
3352.19,0.8985
3354.36,0.8982
3356.53,0.8982
3358.7,0.8977
3360.88,0.8968
3363.06,0.896
3365.24,0.8955
3367.43,0.8949
3369.61,0.8949
3371.8,0.8941
3374.0,0.8929
3376.19,0.8919
3378.39,0.8909
3380.6,0.8903
3382.8,0.8897
3385.01,0.8889
3387.22,0.8884
3389.43,0.8878
3391.65,0.8874
3393.87,0.8869
3396.09,0.887
3398.32,0.8859
3400.55,0.8843
3402.78,0.8834
3405.01,0.8834
3407.25,0.8827
3409.49,0.8816
3411.73,0.8809
3413.98,0.8803
3416.23,0.8795
3418.48,0.8786
3420.73,0.8774
3422.99,0.8767
3425.25,0.8758
3427.51,0.8755
3429.78,0.8755
3432.05,0.8749
3434.32,0.8745
3436.6,0.874
3438.88,0.8731
3441.16,0.8727
3443.45,0.8723
3445.73,0.872
3448.02,0.8713
3450.32,0.8709
3452.61,0.8702
3454.91,0.8692
3457.22,0.8688
3459.52,0.8683
3461.83,0.8676
3464.15,0.8675
3466.46,0.8668
3468.78,0.8664
3471.1,0.8655
3473.43,0.8647
3475.75,0.8643
3478.09,0.8637
3480.42,0.8628
3482.76,0.862
3485.1,0.8613
3487.44,0.8609
3489.79,0.8599
3492.14,0.8594
3494.49,0.8586
3496.85,0.8579
3499.21,0.857
3501.57,0.8558
3503.93,0.8546
3506.3,0.8539
3508.68,0.8535
3511.05,0.8532
3513.43,0.8523
3515.81,0.8525
3518.2,0.852
3520.58,0.8515
3522.98,0.8514
3525.37,0.8513
3527.77,0.8505
3530.17,0.8504
3532.57,0.8495
3534.98,0.8492
3537.39,0.8487
3539.81,0.848
3542.23,0.8469
3544.65,0.8462
3547.07,0.8456
3549.5,0.8451
3551.93,0.8445
3554.36,0.8438
3556.8,0.8431
3559.24,0.8428
3561.69,0.8418
3564.14,0.841
3566.59,0.8406
3569.04,0.8405
3571.5,0.8398
3573.96,0.839
3576.42,0.8387
3578.89,0.8383
3581.36,0.8374
3583.84,0.8366
3586.32,0.836
3588.8,0.8358
3591.28,0.835
3593.77,0.8344
3596.26,0.8341
3598.76,0.8337
3601.26,0.8331
3603.76,0.8326
3606.27,0.8319
3608.78,0.8317
3611.29,0.8309
3613.81,0.8303
3616.33,0.8303
3618.85,0.8297
3621.38,0.8288
3623.91,0.8283
3626.44,0.8276
3628.98,0.8276
3631.52,0.827
3634.06,0.8262
3636.61,0.8258
3639.16,0.8257
3641.72,0.8255
3644.28,0.8247
3646.84,0.8239
3649.41,0.8235
3651.98,0.823
3654.55,0.8228
3657.13,0.8222
3659.71,0.8216
3662.29,0.8213
3664.88,0.821
3667.47,0.8205
3670.07,0.8204
3672.67,0.8203
3675.27,0.8201
3677.88,0.8195
3680.49,0.8194
3683.1,0.8191
3685.72,0.819
3688.34,0.8188
3690.96,0.8181
3693.59,0.8177
3696.23,0.8174
3698.86,0.8169
3701.5,0.8173
3704.15,0.8171
3706.79,0.817
3709.44,0.817
3712.1,0.8166
3714.76,0.8166
3717.42,0.8169
3720.09,0.8167
3722.76,0.8166
3725.43,0.8164
3728.11,0.8165
3730.79,0.8162
3733.48,0.8163
3736.17,0.8163
3738.86,0.8161
3741.56,0.8159
3744.26,0.8155
3746.97,0.8156
3749.67,0.8159
3752.39,0.8158
3755.1,0.8157
3757.83,0.8157
3760.55,0.8157
3763.28,0.8159
3766.01,0.816
3768.75,0.8158
3771.49,0.8156
3774.23,0.8154
3776.98,0.8154
3779.74,0.815
3782.49,0.8149
3785.25,0.8148
3788.02,0.8149
3790.79,0.8148
3793.56,0.8141
3796.34,0.813
3799.12,0.8129
3801.9,0.8135
3804.69,0.8136
3807.48,0.8133
3810.28,0.813
3813.08,0.8127
3815.89,0.8125
3818.7,0.8123
3821.51,0.8122
3824.33,0.812
3827.15,0.8117
3829.98,0.8115
3832.81,0.8117
3835.64,0.8116
3838.48,0.8116
3841.33,0.8114
3844.17,0.811
3847.03,0.811
3849.88,0.8109
3852.74,0.811
3855.61,0.8112
3858.47,0.8109
3861.35,0.8105
3864.22,0.8103
3867.11,0.8104
3869.99,0.8104
3872.88,0.8097
3875.78,0.8091
3878.67,0.8089
3881.58,0.8085
3884.48,0.8085
3887.4,0.8084
3890.31,0.8081
3893.23,0.8079
3896.16,0.8077
3899.09,0.8077
3902.02,0.8079
3904.96,0.8078
3907.9,0.8074
3910.85,0.8073
3913.8,0.8078
3916.76,0.8084
3919.72,0.8087
3922.68,0.8088
3925.65,0.809
3928.62,0.8087
3931.6,0.8085
3934.58,0.8089
3937.57,0.8096
3940.56,0.8095
3943.56,0.8097
3946.56,0.8102
3949.57,0.8107
3952.58,0.8112
3955.59,0.8116
3958.61,0.8117
3961.63,0.8126
3964.66,0.8137
3967.7,0.8146
3970.73,0.8154
3973.78,0.8163
3976.82,0.8171
3979.88,0.8183
3982.93,0.8191
3985.99,0.8199
3989.06,0.8206
3992.13,0.8214
3995.21,0.8219
3998.29,0.8229
4001.37,0.8238
4004.46,0.8247
4007.55,0.8254
4010.65,0.826
4013.76,0.8266
4016.87,0.8269
4019.98,0.8264
4023.1,0.8265
4026.22,0.8268
4029.35,0.8268
4032.48,0.8266
4035.62,0.8267
4038.76,0.8266
4041.91,0.8267
4045.06,0.8267
4048.22,0.827
4051.38,0.8275
4054.55,0.8279
4057.72,0.8273
4060.9,0.8271
4064.08,0.827
4067.27,0.8272
4070.46,0.8274
4073.66,0.827
4076.86,0.8272
4080.07,0.8274
4083.28,0.8271
4086.5,0.8269
4089.72,0.827
4092.95,0.8269
4096.18,0.8266
4099.42,0.8262
4102.66,0.8259
4105.91,0.8259
4109.16,0.8255
4112.42,0.8251
4115.69,0.8246
4118.96,0.8243
4122.23,0.8242
4125.51,0.8246
4128.79,0.8248
4132.08,0.8244
4135.38,0.8237
4138.68,0.8239
4141.98,0.8237
4145.29,0.8235
4148.61,0.8237
