Database of Origin,University of Winnipeg Spectrophotometer Facility
Sample Description,8. Sulfates - Jim Crowley (USGS) IR spectra /  Crowley IR spectra
Date Added,2016-07-15 22:04:24.313791

Data ID,CWL_SUL_25          
Sample ID,Thenardite
Mineral Name,Thenardite
Locality,"Saline Valley, CA"
Grain Size,~250
Viewing Geometry,unknown
Resolution,0.08-40
Material Class,Sulfate

Wavelength
2083.55,0.5755
2084.39,0.5779
2085.23,0.5759
2086.06,0.573
2086.9,0.5748
2087.74,0.5752
2088.58,0.5766
2089.43,0.5772
2090.27,0.5762
2091.11,0.5742
2091.95,0.5729
2092.8,0.5753
2093.64,0.5839
2094.49,0.5854
2095.33,0.5837
2096.18,0.58
2097.03,0.5791
2097.88,0.5813
2098.73,0.5836
2099.58,0.585
2100.43,0.5867
2101.28,0.5878
2102.13,0.5888
2102.98,0.5891
2103.83,0.5899
2104.69,0.5899
2105.54,0.5935
2106.4,0.5963
2107.25,0.5997
2108.11,0.6004
2108.97,0.5993
2109.83,0.5971
2110.68,0.5978
2111.54,0.6018
2112.4,0.6046
2113.27,0.6046
2114.13,0.6074
2114.99,0.6112
2115.85,0.6118
2116.72,0.6139
2117.58,0.6155
2118.44,0.6169
2119.31,0.6173
2120.18,0.6177
2121.04,0.6216
2121.91,0.6226
2122.78,0.6203
2123.65,0.6234
2124.52,0.6259
2125.39,0.6229
2126.26,0.6213
2127.13,0.621
2128.01,0.6182
2128.88,0.6133
2129.75,0.611
2130.63,0.6081
2131.5,0.6053
2132.38,0.6068
2133.26,0.6045
2134.14,0.599
2135.01,0.5964
2135.89,0.5929
2136.77,0.588
2137.65,0.5842
2138.54,0.584
2139.42,0.5852
2140.3,0.5866
2141.18,0.5845
2142.07,0.5828
2142.95,0.5792
2143.84,0.5763
2144.73,0.577
2145.61,0.575
2146.5,0.5739
2147.39,0.5756
2148.28,0.5746
2149.17,0.576
2150.06,0.5784
2150.95,0.5756
2151.85,0.575
2152.74,0.5764
2153.63,0.5778
2154.53,0.5782
2155.42,0.5771
2156.32,0.5757
2157.22,0.5729
2158.11,0.5728
2159.01,0.5752
2159.91,0.574
2160.81,0.5732
2161.71,0.5755
2162.61,0.5776
2163.52,0.5784
2164.42,0.5789
2165.32,0.5787
2166.23,0.5791
2167.13,0.581
2168.04,0.5803
2168.94,0.5785
2169.85,0.5774
2170.76,0.5778
2171.67,0.5801
2172.58,0.5821
2173.49,0.5833
2174.4,0.5858
2175.31,0.5877
2176.23,0.5892
2177.14,0.5901
2178.05,0.5872
2178.97,0.5837
2179.89,0.5847
2180.8,0.5872
2181.72,0.587
2182.64,0.5868
2183.56,0.5887
2184.48,0.5881
2185.4,0.587
2186.32,0.5895
2187.24,0.5919
2188.16,0.5896
2189.09,0.588
2190.01,0.5867
2190.94,0.5873
2191.86,0.5891
2192.79,0.5915
2193.72,0.5916
2194.64,0.5934
2195.57,0.5913
2196.5,0.5882
2197.43,0.5917
2198.37,0.5944
2199.3,0.5943
2200.23,0.5953
2201.16,0.5962
2202.1,0.5955
2203.03,0.5959
2203.97,0.5945
2204.91,0.5937
2205.85,0.5959
2206.78,0.5953
2207.72,0.594
2208.66,0.5955
2209.61,0.5969
2210.55,0.5969
2211.49,0.5945
2212.43,0.5915
2213.38,0.5935
2214.32,0.595
2215.27,0.5936
2216.21,0.5937
2217.16,0.5932
2218.11,0.5901
2219.06,0.589
2220.01,0.5886
2220.96,0.5868
2221.91,0.5851
2222.86,0.5853
2223.82,0.5841
2224.77,0.585
2225.73,0.5837
2226.68,0.5824
2227.64,0.5828
2228.6,0.5802
2229.55,0.5786
2230.51,0.5806
2231.47,0.5796
2232.43,0.578
2233.39,0.5767
2234.36,0.5753
2235.32,0.5756
2236.28,0.5776
2237.25,0.5775
2238.21,0.5772
2239.18,0.5756
2240.15,0.5776
2241.12,0.5778
2242.08,0.5749
2243.05,0.5766
2244.02,0.5767
2245.0,0.5745
2245.97,0.5746
2246.94,0.5745
2247.91,0.5745
2248.89,0.5729
2249.87,0.5728
2250.84,0.5726
2251.82,0.5739
2252.8,0.5741
2253.78,0.5715
2254.76,0.5702
2255.74,0.5711
2256.72,0.5689
2257.7,0.5679
2258.68,0.5699
2259.67,0.5701
2260.65,0.5684
2261.64,0.5671
2262.63,0.5667
2263.61,0.5695
2264.6,0.5685
2265.59,0.568
2266.58,0.569
2267.57,0.5698
2268.56,0.5666
2269.56,0.5642
2270.55,0.564
2271.55,0.5636
2272.54,0.5649
2273.54,0.5648
2274.53,0.5643
2275.53,0.5649
2276.53,0.5665
2277.53,0.5679
2278.53,0.566
2279.53,0.5657
2280.54,0.566
2281.54,0.5655
2282.54,0.5641
2283.55,0.5649
2284.55,0.5669
2285.56,0.5668
2286.57,0.5663
2287.58,0.5666
2288.59,0.5669
2289.6,0.5656
2290.61,0.5656
2291.62,0.5691
2292.63,0.5711
2293.65,0.5696
2294.66,0.5695
2295.68,0.5722
2296.69,0.5709
2297.71,0.5686
2298.73,0.5688
2299.75,0.5687
2300.77,0.5686
2301.79,0.5695
2302.81,0.5709
2303.84,0.5714
2304.86,0.5715
2305.88,0.5729
2306.91,0.5731
2307.94,0.574
2308.96,0.5748
2309.99,0.5746
2311.02,0.5763
2312.05,0.5764
2313.08,0.5747
2314.12,0.5743
2315.15,0.5787
2316.18,0.5799
2317.22,0.5764
2318.25,0.5748
2319.29,0.5748
2320.33,0.5753
2321.37,0.5763
2322.41,0.5751
2323.45,0.5726
2324.49,0.5741
2325.53,0.5769
2326.57,0.5766
2327.62,0.5752
2328.66,0.5751
2329.71,0.5754
2330.76,0.5766
2331.8,0.5779
2332.85,0.5775
2333.9,0.5772
2334.95,0.577
2336.01,0.5761
2337.06,0.5767
2338.11,0.578
2339.17,0.5772
2340.22,0.5775
2341.28,0.5785
2342.34,0.579
2343.39,0.5773
2344.45,0.5767
2345.51,0.5772
2346.57,0.5805
2347.64,0.5819
2348.7,0.5813
2349.76,0.5824
2350.83,0.5827
2351.9,0.5826
2352.96,0.5819
2354.03,0.5806
2355.1,0.5823
2356.17,0.5855
2357.24,0.5861
2358.31,0.588
2359.39,0.5891
2360.46,0.5885
2361.53,0.5869
2362.61,0.586
2363.69,0.5872
2364.76,0.5887
2365.84,0.5884
2366.92,0.5877
2368.0,0.5876
2369.09,0.5883
2370.17,0.5916
2371.25,0.5923
2372.34,0.5932
2373.42,0.594
2374.51,0.593
2375.6,0.5943
2376.69,0.5944
2377.78,0.5944
2378.87,0.5969
2379.96,0.6001
2381.05,0.6001
2382.14,0.6008
2383.24,0.6019
2384.33,0.6001
2385.43,0.6003
2386.53,0.6022
2387.63,0.6035
2388.73,0.6064
2389.83,0.6091
2390.93,0.6085
2392.03,0.6087
2393.14,0.6091
2394.24,0.6084
2395.35,0.6087
2396.45,0.6099
2397.56,0.6098
2398.67,0.6107
2399.78,0.6134
2400.89,0.6133
2402.0,0.6123
2403.12,0.6122
2404.23,0.6125
2405.35,0.6129
2406.46,0.6155
2407.58,0.6188
2408.7,0.6183
2409.82,0.6174
2410.94,0.6173
2412.06,0.6185
2413.18,0.6212
2414.3,0.6225
2415.43,0.6216
2416.55,0.6215
2417.68,0.6227
2418.81,0.6222
2419.94,0.6245
2421.07,0.6247
2422.2,0.6247
2423.33,0.6253
2424.46,0.6278
2425.6,0.629
2426.73,0.6297
2427.87,0.6305
2429.0,0.6324
2430.14,0.6332
2431.28,0.6322
2432.42,0.6344
2433.56,0.6341
2434.71,0.6334
2435.85,0.6348
2436.99,0.638
2438.14,0.6386
2439.29,0.6386
2440.43,0.6397
2441.58,0.6414
2442.73,0.6416
2443.88,0.6409
2445.04,0.641
2446.19,0.6402
2447.34,0.6399
2448.5,0.6415
2449.66,0.6425
2450.81,0.6426
2451.97,0.6422
2453.13,0.6406
2454.29,0.6389
2455.45,0.6385
2456.62,0.6405
2457.78,0.6408
2458.95,0.6426
2460.11,0.6429
2461.28,0.6412
2462.45,0.6398
2463.62,0.6414
2464.79,0.6447
2465.96,0.6456
2467.14,0.6444
2468.31,0.6434
2469.49,0.6435
2470.66,0.6441
2471.84,0.644
2473.02,0.6437
2474.2,0.644
2475.38,0.645
2476.56,0.6456
2477.74,0.645
2478.93,0.6446
2480.11,0.6441
2481.3,0.6444
2482.49,0.6447
2483.68,0.646
2484.87,0.6472
2486.06,0.6476
2487.25,0.6455
2488.44,0.6437
2489.64,0.6439
2490.83,0.6462
2492.03,0.6465
2493.23,0.6473
2494.43,0.6477
2495.63,0.6463
2496.83,0.6454
2498.03,0.6451
2499.24,0.6431
2500.44,0.6413
2501.65,0.6411
2502.86,0.6425
2504.06,0.6424
2505.27,0.6424
2506.48,0.6431
2507.7,0.6439
2508.91,0.6439
2510.12,0.6436
2511.34,0.6433
2512.56,0.644
2513.77,0.6449
2514.99,0.645
2516.21,0.6445
2517.43,0.6445
2518.66,0.645
2519.88,0.6457
2521.11,0.6464
2522.33,0.6475
2523.56,0.6479
2524.79,0.6475
2526.02,0.6481
2527.25,0.6482
2528.48,0.6471
2529.71,0.6461
2530.95,0.648
2532.18,0.6476
2533.42,0.6464
2534.66,0.6461
2535.9,0.6443
2537.14,0.644
2538.38,0.6456
2539.62,0.6452
2540.87,0.6427
2542.11,0.6416
2543.36,0.6434
2544.61,0.6433
2545.86,0.6411
2547.11,0.6398
2548.36,0.6395
2549.61,0.6391
2550.87,0.6379
2552.12,0.637
2553.38,0.6368
2554.64,0.6356
2555.89,0.6353
2557.16,0.6359
2558.42,0.637
2559.68,0.6387
2560.94,0.6383
2562.21,0.6368
2563.48,0.6373
2564.74,0.6366
2566.01,0.6359
2567.28,0.6368
2568.55,0.6373
2569.83,0.6372
2571.1,0.6369
2572.38,0.6363
2573.65,0.6355
2574.93,0.633
2576.21,0.6322
2577.49,0.6326
2578.77,0.6335
2580.05,0.6335
2581.34,0.6317
2582.62,0.6315
2583.91,0.631
2585.2,0.6306
2586.49,0.6314
2587.78,0.6322
2589.07,0.6307
2590.36,0.6301
2591.66,0.6314
2592.95,0.6325
2594.25,0.6322
2595.55,0.6317
2596.85,0.6316
2598.15,0.6311
2599.45,0.6302
2600.76,0.6304
2602.06,0.6321
2603.37,0.6326
2604.67,0.6339
2605.98,0.6346
2607.29,0.6334
2608.6,0.6334
2609.92,0.6349
2611.23,0.6358
2612.55,0.636
2613.86,0.6364
2615.18,0.6376
2616.5,0.6382
2617.82,0.6377
2619.14,0.6383
2620.47,0.638
2621.79,0.6387
2623.12,0.6389
2624.45,0.6383
2625.77,0.6391
2627.1,0.6408
2628.44,0.6412
2629.77,0.6414
2631.1,0.6433
2632.44,0.6449
2633.78,0.6451
2635.11,0.6444
2636.45,0.6445
2637.79,0.6462
2639.14,0.6463
2640.48,0.6467
2641.83,0.6471
2643.17,0.6471
2644.52,0.6467
2645.87,0.6474
2647.22,0.6498
2648.57,0.65
2649.92,0.6495
2651.28,0.6503
2652.64,0.6529
2653.99,0.656
2655.35,0.6566
2656.71,0.6557
2658.07,0.6561
2659.44,0.6593
2660.8,0.6616
2662.17,0.6636
2663.53,0.6655
2664.9,0.6667
2666.27,0.6679
2667.64,0.6697
2669.02,0.6722
2670.39,0.675
2671.77,0.6765
2673.14,0.6782
2674.52,0.6801
2675.9,0.6831
2677.28,0.6859
2678.67,0.6885
2680.05,0.6925
2681.44,0.6973
2682.82,0.7014
2684.21,0.7053
2685.6,0.7109
2686.99,0.717
2688.39,0.7218
2689.78,0.7285
2691.18,0.7347
2692.57,0.7408
2693.97,0.7468
2695.37,0.7518
2696.77,0.7568
2698.18,0.7621
2699.58,0.7681
2700.99,0.7732
2702.4,0.7757
2703.8,0.7792
2705.22,0.7833
2706.63,0.7872
2708.04,0.7899
2709.45,0.7923
2710.87,0.7959
2712.29,0.7986
2713.71,0.801
2715.13,0.8052
2716.55,0.8105
2717.97,0.8152
2719.4,0.8185
2720.83,0.8195
2722.25,0.8193
2723.68,0.821
2725.12,0.8228
2726.55,0.8253
2727.98,0.8281
2729.42,0.8317
2730.86,0.836
2732.29,0.8378
2733.73,0.8398
2735.18,0.8424
2736.62,0.8448
2738.06,0.8485
2739.51,0.8514
2740.96,0.8539
2742.41,0.8559
2743.86,0.8571
2745.31,0.8584
2746.77,0.8607
2748.22,0.8631
2749.68,0.8645
2751.14,0.8653
2752.6,0.8677
2754.06,0.871
2755.52,0.8738
2756.99,0.8744
2758.45,0.8752
2759.92,0.8769
2761.39,0.8782
2762.86,0.8788
2764.33,0.8786
2765.81,0.8789
2767.28,0.8812
2768.76,0.8819
2770.24,0.881
2771.72,0.8811
2773.2,0.8832
2774.69,0.8837
2776.17,0.8839
2777.66,0.885
2779.15,0.8856
2780.64,0.887
2782.13,0.8884
2783.62,0.8894
2785.12,0.891
2786.61,0.8925
2788.11,0.8947
2789.61,0.8982
2791.11,0.9017
2792.62,0.9025
2794.12,0.9018
2795.63,0.9016
2797.14,0.9029
2798.64,0.9036
2800.16,0.9031
2801.67,0.9034
2803.18,0.9041
2804.7,0.9026
2806.22,0.9022
2807.74,0.9011
2809.26,0.8988
2810.78,0.8978
2812.3,0.8979
2813.83,0.8977
2815.36,0.8959
2816.89,0.8942
2818.42,0.894
2819.95,0.8945
2821.48,0.8961
2823.02,0.8953
2824.56,0.8948
2826.1,0.8946
2827.64,0.8949
2829.18,0.8944
2830.72,0.8944
2832.27,0.8952
2833.82,0.8961
2835.37,0.8967
2836.92,0.8982
2838.47,0.8987
2840.02,0.8989
2841.58,0.8987
2843.14,0.8987
2844.7,0.8985
2846.26,0.8995
2847.82,0.9008
2849.39,0.9014
2850.95,0.9009
2852.52,0.9017
2854.09,0.9025
2855.66,0.9029
2857.24,0.9034
2858.81,0.904
2860.39,0.9039
2861.97,0.9041
2863.55,0.9052
2865.13,0.905
2866.71,0.9054
2868.3,0.9059
2869.88,0.9066
2871.47,0.9078
2873.06,0.9084
2874.66,0.9087
2876.25,0.909
2877.85,0.9089
2879.45,0.9085
2881.04,0.91
2882.65,0.9114
2884.25,0.9111
2885.85,0.9116
2887.46,0.9126
2889.07,0.9134
2890.68,0.9146
2892.29,0.9149
2893.91,0.9149
2895.52,0.9153
2897.14,0.9167
2898.76,0.9158
2900.38,0.9152
2902.0,0.9173
2903.63,0.9194
2905.25,0.9204
2906.88,0.9211
2908.51,0.9214
2910.14,0.9218
2911.78,0.9216
2913.41,0.9221
2915.05,0.9236
2916.69,0.9245
2918.33,0.9238
2919.98,0.9236
2921.62,0.9252
2923.27,0.9262
2924.92,0.9262
2926.57,0.9266
2928.22,0.9264
2929.87,0.9254
2931.53,0.9252
2933.19,0.9252
2934.85,0.9246
2936.51,0.9244
2938.17,0.9238
2939.84,0.9228
2941.51,0.9222
2943.18,0.9229
2944.85,0.9228
2946.52,0.922
2948.19,0.9217
2949.87,0.9221
2951.55,0.9206
2953.23,0.9191
2954.91,0.9189
2956.6,0.9193
2958.28,0.9192
2959.97,0.9191
2961.66,0.9186
2963.36,0.9181
2965.05,0.9176
2966.75,0.9172
2968.44,0.9178
2970.14,0.9183
2971.85,0.9176
2973.55,0.9179
2975.26,0.9178
2976.96,0.9175
2978.67,0.9172
2980.39,0.9176
2982.1,0.9167
2983.82,0.9151
2985.53,0.9149
2987.25,0.915
2988.97,0.9149
2990.7,0.9157
2992.42,0.9157
2994.15,0.9154
2995.88,0.9158
2997.61,0.9157
2999.35,0.9155
3001.08,0.9157
3002.82,0.9155
3004.56,0.9156
3006.3,0.9151
3008.04,0.9152
3009.79,0.9151
3011.54,0.915
3013.29,0.9153
3015.04,0.9155
3016.79,0.9156
3018.55,0.9156
3020.31,0.9143
3022.07,0.9134
3023.83,0.914
3025.59,0.9146
3027.36,0.9145
3029.13,0.9148
3030.9,0.9146
3032.67,0.9143
3034.44,0.9145
3036.22,0.9144
3038.0,0.9137
3039.78,0.9138
3041.56,0.9139
3043.35,0.9139
3045.14,0.9138
3046.92,0.9141
3048.72,0.913
3050.51,0.9121
3052.3,0.9125
3054.1,0.9131
3055.9,0.9126
3057.7,0.9115
3059.51,0.9107
3061.31,0.9112
3063.12,0.9123
3064.93,0.912
3066.74,0.9118
3068.56,0.9124
3070.37,0.9114
3072.19,0.9096
3074.01,0.9095
3075.84,0.9108
3077.66,0.9107
3079.49,0.9101
3081.32,0.9102
3083.15,0.9097
3084.99,0.909
3086.82,0.9095
3088.66,0.9097
3090.5,0.9097
3092.34,0.9085
3094.19,0.9074
3096.04,0.9075
3097.89,0.9086
3099.74,0.9085
3101.59,0.9073
3103.45,0.9073
3105.31,0.9076
3107.17,0.9075
3109.03,0.9074
3110.89,0.9066
3112.76,0.9065
3114.63,0.9064
3116.5,0.9069
3118.38,0.9072
3120.25,0.9068
3122.13,0.9067
3124.01,0.9061
3125.89,0.9061
3127.78,0.907
3129.67,0.9071
3131.56,0.9071
3133.45,0.9067
3135.34,0.9065
3137.24,0.9067
3139.14,0.9066
3141.04,0.9059
3142.94,0.9065
3144.85,0.9068
3146.76,0.9071
3148.67,0.9074
3150.58,0.9076
3152.5,0.9074
3154.41,0.9077
3156.33,0.9076
3158.25,0.907
3160.18,0.9066
3162.11,0.9061
3164.04,0.9043
3165.97,0.9036
3167.9,0.9043
3169.84,0.904
3171.78,0.9031
3173.72,0.9021
3175.66,0.901
3177.61,0.9002
3179.55,0.8991
3181.5,0.8982
3183.46,0.8971
3185.41,0.8965
3187.37,0.8951
3189.33,0.8941
3191.29,0.8933
3193.26,0.892
3195.23,0.8912
3197.2,0.8905
3199.17,0.8897
3201.14,0.8879
3203.12,0.8866
3205.1,0.8863
3207.08,0.8852
3209.07,0.8841
3211.05,0.8833
3213.04,0.8833
3215.03,0.8833
3217.03,0.8822
3219.03,0.8813
3221.02,0.8811
3223.03,0.88
3225.03,0.8786
3227.04,0.8778
3229.05,0.8779
3231.06,0.8777
3233.07,0.8769
3235.09,0.8754
3237.11,0.8746
3239.13,0.8739
3241.15,0.8736
3243.18,0.8733
3245.21,0.8727
3247.24,0.8716
3249.28,0.8708
3251.31,0.8701
3253.35,0.8697
3255.4,0.8691
3257.44,0.8684
3259.49,0.8672
3261.54,0.8664
3263.59,0.8654
3265.65,0.865
3267.7,0.864
3269.76,0.8636
3271.83,0.8635
3273.89,0.8628
3275.96,0.862
3278.03,0.8608
3280.1,0.8601
3282.18,0.8599
3284.26,0.8594
3286.34,0.8591
3288.42,0.8583
3290.51,0.8569
3292.6,0.8555
3294.69,0.8546
3296.78,0.8531
3298.88,0.852
3300.98,0.8514
3303.08,0.851
3305.19,0.8504
3307.3,0.8498
3309.41,0.8497
3311.52,0.8488
3313.64,0.8471
3315.75,0.846
3317.88,0.8451
3320.0,0.8443
3322.13,0.8431
3324.26,0.8418
3326.39,0.8404
3328.52,0.8397
3330.66,0.8389
3332.8,0.8377
3334.94,0.837
3337.09,0.8362
3339.24,0.8349
3341.39,0.8335
3343.54,0.8326
3345.7,0.8316
3347.86,0.8304
3350.02,0.8295
3352.19,0.8287
3354.36,0.8274
3356.53,0.8263
3358.7,0.8258
3360.88,0.825
3363.06,0.824
3365.24,0.8228
3367.43,0.8219
3369.61,0.8212
3371.8,0.8208
3374.0,0.8198
3376.19,0.8185
3378.39,0.8162
3380.6,0.8152
3382.8,0.8145
3385.01,0.8137
3387.22,0.813
3389.43,0.8123
3391.65,0.8114
3393.87,0.8104
3396.09,0.8093
3398.32,0.8081
3400.55,0.8063
3402.78,0.8049
3405.01,0.8042
3407.25,0.8036
3409.49,0.8018
3411.73,0.8007
3413.98,0.7998
3416.23,0.7987
3418.48,0.7969
3420.73,0.7955
3422.99,0.7948
3425.25,0.7938
3427.51,0.7921
3429.78,0.7908
3432.05,0.7901
3434.32,0.79
3436.6,0.7892
3438.88,0.788
3441.16,0.7871
3443.45,0.7865
3445.73,0.786
3448.02,0.7854
3450.32,0.7845
3452.61,0.7833
3454.91,0.7815
3457.22,0.7799
3459.52,0.7789
3461.83,0.778
3464.15,0.7774
3466.46,0.7772
3468.78,0.7754
3471.1,0.7735
3473.43,0.7734
3475.75,0.7735
3478.09,0.7717
3480.42,0.7699
3482.76,0.7688
3485.1,0.7673
3487.44,0.7658
3489.79,0.7656
3492.14,0.7649
3494.49,0.7644
3496.85,0.7635
3499.21,0.762
3501.57,0.7607
3503.93,0.7585
3506.3,0.757
3508.68,0.7554
3511.05,0.7546
3513.43,0.7549
3515.81,0.7544
3518.2,0.7543
3520.58,0.7542
3522.98,0.7542
3525.37,0.7539
3527.77,0.7529
3530.17,0.7518
3532.57,0.7507
3534.98,0.7497
3537.39,0.7488
3539.81,0.7482
3542.23,0.7482
3544.65,0.7472
3547.07,0.7459
3549.5,0.7451
3551.93,0.7444
3554.36,0.7438
3556.8,0.7432
3559.24,0.7418
3561.69,0.7412
3564.14,0.7405
3566.59,0.7391
3569.04,0.7385
3571.5,0.7381
3573.96,0.7374
3576.42,0.7365
3578.89,0.7355
3581.36,0.7353
3583.84,0.7348
3586.32,0.7342
3588.8,0.7339
3591.28,0.7336
3593.77,0.7319
3596.26,0.7309
3598.76,0.7311
3601.26,0.7299
3603.76,0.7289
3606.27,0.7283
3608.78,0.7273
3611.29,0.7268
3613.81,0.7261
3616.33,0.7256
3618.85,0.7248
3621.38,0.7239
3623.91,0.7229
3626.44,0.7228
3628.98,0.7226
3631.52,0.7217
3634.06,0.7211
3636.61,0.7208
3639.16,0.7198
3641.72,0.7197
3644.28,0.7196
3646.84,0.7186
3649.41,0.7174
3651.98,0.7167
3654.55,0.7164
3657.13,0.7156
3659.71,0.7147
3662.29,0.7147
3664.88,0.7144
3667.47,0.7135
3670.07,0.7132
3672.67,0.7129
3675.27,0.7123
3677.88,0.7119
3680.49,0.712
3683.1,0.712
3685.72,0.7112
3688.34,0.7102
3690.96,0.7095
3693.59,0.709
3696.23,0.7088
3698.86,0.7095
3701.5,0.7099
3704.15,0.7092
3706.79,0.7082
3709.44,0.708
3712.1,0.708
3714.76,0.7075
3717.42,0.7075
3720.09,0.7078
3722.76,0.7076
3725.43,0.708
3728.11,0.7084
3730.79,0.7081
3733.48,0.7075
3736.17,0.7071
3738.86,0.7061
3741.56,0.7062
3744.26,0.7067
3746.97,0.707
3749.67,0.7071
3752.39,0.7067
3755.1,0.7064
3757.83,0.707
3760.55,0.7074
3763.28,0.7075
3766.01,0.7081
3768.75,0.7086
3771.49,0.7083
3774.23,0.7082
3776.98,0.7084
3779.74,0.7093
3782.49,0.71
3785.25,0.7107
3788.02,0.7113
3790.79,0.7125
3793.56,0.7134
3796.34,0.7139
3799.12,0.7147
3801.9,0.7152
3804.69,0.7157
3807.48,0.7161
3810.28,0.7162
3813.08,0.7175
3815.89,0.719
3818.7,0.7194
3821.51,0.7198
3824.33,0.7206
3827.15,0.7218
3829.98,0.7234
3832.81,0.7244
3835.64,0.7254
3838.48,0.7262
3841.33,0.7275
3844.17,0.7283
3847.03,0.7286
3849.88,0.7296
3852.74,0.7311
3855.61,0.7316
3858.47,0.7319
3861.35,0.7337
3864.22,0.7349
3867.11,0.7351
3869.99,0.7358
3872.88,0.737
3875.78,0.7382
3878.67,0.7398
3881.58,0.7416
3884.48,0.7428
3887.4,0.7443
3890.31,0.7459
3893.23,0.7476
3896.16,0.7495
3899.09,0.7509
3902.02,0.7519
3904.96,0.7533
3907.9,0.7544
3910.85,0.7553
3913.8,0.7568
3916.76,0.7579
3919.72,0.7587
3922.68,0.7601
3925.65,0.7619
3928.62,0.7628
3931.6,0.7634
3934.58,0.7644
3937.57,0.765
3940.56,0.7651
3943.56,0.7648
3946.56,0.7649
3949.57,0.7653
3952.58,0.7654
3955.59,0.765
3958.61,0.7648
3961.63,0.7638
3964.66,0.7629
3967.7,0.7619
3970.73,0.7608
3973.78,0.7584
3976.82,0.7561
3979.88,0.7537
3982.93,0.7511
3985.99,0.7478
3989.06,0.7453
3992.13,0.7428
3995.21,0.7402
3998.29,0.7379
4001.37,0.7352
4004.46,0.7324
4007.55,0.7309
4010.65,0.7294
4013.76,0.7273
4016.87,0.7253
4019.98,0.7241
4023.1,0.7229
4026.22,0.7223
4029.35,0.7213
4032.48,0.7201
4035.62,0.7193
4038.76,0.7193
4041.91,0.7195
4045.06,0.7197
4048.22,0.7191
4051.38,0.7188
4054.55,0.719
4057.72,0.7196
4060.9,0.7194
4064.08,0.7192
4067.27,0.7193
4070.46,0.7196
4073.66,0.7197
4076.86,0.7201
4080.07,0.7203
4083.28,0.721
4086.5,0.7218
4089.72,0.7216
4092.95,0.7209
4096.18,0.7213
4099.42,0.7212
4102.66,0.7206
4105.91,0.7207
4109.16,0.7211
4112.42,0.7213
4115.69,0.7216
4118.96,0.7214
4122.23,0.7211
4125.51,0.7212
4128.79,0.7211
4132.08,0.7209
4135.38,0.7213
4138.68,0.721
4141.98,0.7211
4145.29,0.7211
