Database of Origin,University of Winnipeg Spectrophotometer Facility
Sample Description,8. Sulfates - Jim Crowley (USGS) IR spectra /  Crowley IR spectra
Date Added,2016-07-15 22:04:24.335619

Data ID,CWL_SUL_26          
Sample ID,Thenardite
Mineral Name,Thenardite
Locality,"Saline Valley, CA"
Grain Size,~250
Viewing Geometry,unknown
Resolution,0.08-40
Material Class,Sulfate

Wavelength
2083.55,0.5763
2084.39,0.5694
2085.23,0.5719
2086.06,0.578
2086.9,0.5811
2087.74,0.5786
2088.58,0.573
2089.43,0.5723
2090.27,0.5714
2091.11,0.5684
2091.95,0.5713
2092.8,0.5708
2093.64,0.5702
2094.49,0.573
2095.33,0.5752
2096.18,0.5707
2097.03,0.5725
2097.88,0.5758
2098.73,0.5788
2099.58,0.5779
2100.43,0.5751
2101.28,0.5765
2102.13,0.5792
2102.98,0.5781
2103.83,0.5733
2104.69,0.5695
2105.54,0.5696
2106.4,0.5756
2107.25,0.5782
2108.11,0.5748
2108.97,0.575
2109.83,0.5784
2110.68,0.5746
2111.54,0.5748
2112.4,0.5788
2113.27,0.579
2114.13,0.5735
2114.99,0.5703
2115.85,0.5739
2116.72,0.5767
2117.58,0.5748
2118.44,0.5742
2119.31,0.578
2120.18,0.5798
2121.04,0.5743
2121.91,0.5698
2122.78,0.5731
2123.65,0.5735
2124.52,0.574
2125.39,0.5735
2126.26,0.5708
2127.13,0.5703
2128.01,0.575
2128.88,0.5775
2129.75,0.5671
2130.63,0.5646
2131.5,0.5687
2132.38,0.5703
2133.26,0.5716
2134.14,0.5747
2135.01,0.5745
2135.89,0.5697
2136.77,0.5699
2137.65,0.5671
2138.54,0.5643
2139.42,0.5677
2140.3,0.5714
2141.18,0.5712
2142.07,0.5687
2142.95,0.5656
2143.84,0.5638
2144.73,0.565
2145.61,0.5696
2146.5,0.5711
2147.39,0.5686
2148.28,0.5706
2149.17,0.5735
2150.06,0.5704
2150.95,0.5709
2151.85,0.5694
2152.74,0.5651
2153.63,0.5641
2154.53,0.5648
2155.42,0.5635
2156.32,0.5653
2157.22,0.5677
2158.11,0.5649
2159.01,0.5635
2159.91,0.5696
2160.81,0.5716
2161.71,0.5707
2162.61,0.5689
2163.52,0.5715
2164.42,0.5734
2165.32,0.5691
2166.23,0.5654
2167.13,0.5662
2168.04,0.5657
2168.94,0.5704
2169.85,0.5727
2170.76,0.5683
2171.67,0.567
2172.58,0.5667
2173.49,0.5702
2174.4,0.5701
2175.31,0.5706
2176.23,0.5744
2177.14,0.5745
2178.05,0.5723
2178.97,0.5714
2179.89,0.5736
2180.8,0.5766
2181.72,0.5739
2182.64,0.5696
2183.56,0.5725
2184.48,0.5726
2185.4,0.5724
2186.32,0.5761
2187.24,0.5765
2188.16,0.5759
2189.09,0.577
2190.01,0.5766
2190.94,0.5774
2191.86,0.5771
2192.79,0.5745
2193.72,0.5761
2194.64,0.5768
2195.57,0.5757
2196.5,0.577
2197.43,0.5775
2198.37,0.5764
2199.3,0.5794
2200.23,0.5841
2201.16,0.5811
2202.1,0.579
2203.03,0.5802
2203.97,0.5796
2204.91,0.5759
2205.85,0.5748
2206.78,0.5768
2207.72,0.5768
2208.66,0.5773
2209.61,0.5818
2210.55,0.5823
2211.49,0.582
2212.43,0.5806
2213.38,0.58
2214.32,0.58
2215.27,0.5785
2216.21,0.5786
2217.16,0.5766
2218.11,0.5751
2219.06,0.5746
2220.01,0.5724
2220.96,0.5763
2221.91,0.5786
2222.86,0.5765
2223.82,0.573
2224.77,0.5753
2225.73,0.5754
2226.68,0.573
2227.64,0.5718
2228.6,0.5723
2229.55,0.5711
2230.51,0.5693
2231.47,0.5693
2232.43,0.5712
2233.39,0.5714
2234.36,0.5704
2235.32,0.5711
2236.28,0.5738
2237.25,0.5699
2238.21,0.5689
2239.18,0.5725
2240.15,0.5715
2241.12,0.5686
2242.08,0.5701
2243.05,0.5694
2244.02,0.5678
2245.0,0.5691
2245.97,0.5718
2246.94,0.571
2247.91,0.5701
2248.89,0.5707
2249.87,0.5699
2250.84,0.5664
2251.82,0.5671
2252.8,0.5708
2253.78,0.5715
2254.76,0.5712
2255.74,0.5707
2256.72,0.57
2257.7,0.5709
2258.68,0.5679
2259.67,0.5686
2260.65,0.5756
2261.64,0.5746
2262.63,0.5683
2263.61,0.5659
2264.6,0.5682
2265.59,0.5703
2266.58,0.5702
2267.57,0.5704
2268.56,0.5665
2269.56,0.5654
2270.55,0.5672
2271.55,0.5666
2272.54,0.5691
2273.54,0.571
2274.53,0.5716
2275.53,0.5714
2276.53,0.5698
2277.53,0.572
2278.53,0.5719
2279.53,0.569
2280.54,0.5743
2281.54,0.5794
2282.54,0.5764
2283.55,0.5727
2284.55,0.5707
2285.56,0.5728
2286.57,0.5744
2287.58,0.5767
2288.59,0.5756
2289.6,0.5741
2290.61,0.574
2291.62,0.5754
2292.63,0.5789
2293.65,0.5804
2294.66,0.578
2295.68,0.5774
2296.69,0.5788
2297.71,0.5772
2298.73,0.5764
2299.75,0.5808
2300.77,0.5804
2301.79,0.5802
2302.81,0.579
2303.84,0.5812
2304.86,0.5834
2305.88,0.586
2306.91,0.5857
2307.94,0.5824
2308.96,0.5818
2309.99,0.5846
2311.02,0.5879
2312.05,0.589
2313.08,0.5904
2314.12,0.5885
2315.15,0.5891
2316.18,0.5925
2317.22,0.5916
2318.25,0.5887
2319.29,0.5875
2320.33,0.5906
2321.37,0.5907
2322.41,0.5903
2323.45,0.5913
2324.49,0.5919
2325.53,0.5914
2326.57,0.5924
2327.62,0.5895
2328.66,0.5869
2329.71,0.5888
2330.76,0.5909
2331.8,0.5939
2332.85,0.5977
2333.9,0.5944
2334.95,0.5885
2336.01,0.5902
2337.06,0.5939
2338.11,0.5958
2339.17,0.5954
2340.22,0.5931
2341.28,0.5937
2342.34,0.5934
2343.39,0.5941
2344.45,0.5954
2345.51,0.5959
2346.57,0.5978
2347.64,0.5969
2348.7,0.5942
2349.76,0.5957
2350.83,0.5962
2351.9,0.5972
2352.96,0.6008
2354.03,0.6003
2355.1,0.5958
2356.17,0.5945
2357.24,0.5952
2358.31,0.5987
2359.39,0.6017
2360.46,0.6013
2361.53,0.5992
2362.61,0.6001
2363.69,0.5989
2364.76,0.5977
2365.84,0.5975
2366.92,0.598
2368.0,0.5989
2369.09,0.6005
2370.17,0.6
2371.25,0.6011
2372.34,0.6044
2373.42,0.6057
2374.51,0.6059
2375.6,0.6073
2376.69,0.6063
2377.78,0.6063
2378.87,0.6077
2379.96,0.6089
2381.05,0.6082
2382.14,0.6074
2383.24,0.6098
2384.33,0.6112
2385.43,0.61
2386.53,0.6132
2387.63,0.6166
2388.73,0.6167
2389.83,0.6147
2390.93,0.6165
2392.03,0.6172
2393.14,0.6194
2394.24,0.6196
2395.35,0.6172
2396.45,0.6157
2397.56,0.6164
2398.67,0.6171
2399.78,0.6174
2400.89,0.6167
2402.0,0.6165
2403.12,0.6195
2404.23,0.6199
2405.35,0.6213
2406.46,0.6249
2407.58,0.6261
2408.7,0.6245
2409.82,0.6238
2410.94,0.6258
2412.06,0.6261
2413.18,0.626
2414.3,0.6262
2415.43,0.6282
2416.55,0.6287
2417.68,0.6301
2418.81,0.6314
2419.94,0.6319
2421.07,0.6337
2422.2,0.6362
2423.33,0.6373
2424.46,0.6385
2425.6,0.6381
2426.73,0.6378
2427.87,0.641
2429.0,0.6417
2430.14,0.6403
2431.28,0.6402
2432.42,0.6407
2433.56,0.6416
2434.71,0.6445
2435.85,0.6478
2436.99,0.6473
2438.14,0.6499
2439.29,0.6513
2440.43,0.6506
2441.58,0.6516
2442.73,0.6524
2443.88,0.6535
2445.04,0.6552
2446.19,0.6534
2447.34,0.6532
2448.5,0.6551
2449.66,0.6551
2450.81,0.6567
2451.97,0.6582
2453.13,0.659
2454.29,0.6608
2455.45,0.6594
2456.62,0.6595
2457.78,0.6598
2458.95,0.6594
2460.11,0.6604
2461.28,0.661
2462.45,0.6637
2463.62,0.6671
2464.79,0.667
2465.96,0.6653
2467.14,0.6655
2468.31,0.6674
2469.49,0.6672
2470.66,0.6684
2471.84,0.6701
2473.02,0.6687
2474.2,0.6657
2475.38,0.6672
2476.56,0.6685
2477.74,0.6678
2478.93,0.6669
2480.11,0.6681
2481.3,0.6695
2482.49,0.6677
2483.68,0.6681
2484.87,0.6703
2486.06,0.6692
2487.25,0.6664
2488.44,0.6673
2489.64,0.671
2490.83,0.6701
2492.03,0.6682
2493.23,0.6663
2494.43,0.6658
2495.63,0.6697
2496.83,0.6709
2498.03,0.6694
2499.24,0.6694
2500.44,0.6694
2501.65,0.6669
2502.86,0.6657
2504.06,0.6671
2505.27,0.6681
2506.48,0.6703
2507.7,0.673
2508.91,0.6712
2510.12,0.6658
2511.34,0.6654
2512.56,0.6673
2513.77,0.6683
2514.99,0.6683
2516.21,0.6671
2517.43,0.6671
2518.66,0.6677
2519.88,0.6655
2521.11,0.666
2522.33,0.6681
2523.56,0.6679
2524.79,0.6677
2526.02,0.6661
2527.25,0.6626
2528.48,0.6624
2529.71,0.6642
2530.95,0.6629
2532.18,0.6629
2533.42,0.668
2534.66,0.6658
2535.9,0.6619
2537.14,0.6629
2538.38,0.6641
2539.62,0.6628
2540.87,0.6617
2542.11,0.6612
2543.36,0.6611
2544.61,0.6628
2545.86,0.6642
2547.11,0.6627
2548.36,0.6626
2549.61,0.6629
2550.87,0.6628
2552.12,0.6613
2553.38,0.6602
2554.64,0.66
2555.89,0.6601
2557.16,0.6583
2558.42,0.6596
2559.68,0.6586
2560.94,0.6551
2562.21,0.6551
2563.48,0.6593
2564.74,0.6614
2566.01,0.6602
2567.28,0.6591
2568.55,0.6601
2569.83,0.6607
2571.1,0.659
2572.38,0.6567
2573.65,0.6579
2574.93,0.6587
2576.21,0.6577
2577.49,0.6551
2578.77,0.6578
2580.05,0.66
2581.34,0.6588
2582.62,0.6586
2583.91,0.6604
2585.2,0.6625
2586.49,0.6616
2587.78,0.6574
2589.07,0.6564
2590.36,0.6585
2591.66,0.6614
2592.95,0.6627
2594.25,0.663
2595.55,0.6642
2596.85,0.6633
2598.15,0.6625
2599.45,0.6635
2600.76,0.6634
2602.06,0.664
2603.37,0.6629
2604.67,0.6636
2605.98,0.6654
2607.29,0.6654
2608.6,0.6634
2609.92,0.6644
2611.23,0.6645
2612.55,0.6657
2613.86,0.6676
2615.18,0.6673
2616.5,0.6662
2617.82,0.6675
2619.14,0.6673
2620.47,0.669
2621.79,0.6699
2623.12,0.6692
2624.45,0.6676
2625.77,0.669
2627.1,0.6721
2628.44,0.6742
2629.77,0.6735
2631.1,0.6746
2632.44,0.6773
2633.78,0.6787
2635.11,0.68
2636.45,0.68
2637.79,0.6786
2639.14,0.6791
2640.48,0.6814
2641.83,0.6827
2643.17,0.6826
2644.52,0.6839
2645.87,0.6848
2647.22,0.6859
2648.57,0.6855
2649.92,0.6875
2651.28,0.6907
2652.64,0.6915
2653.99,0.6938
2655.35,0.6966
2656.71,0.6973
2658.07,0.6974
2659.44,0.6989
2660.8,0.7016
2662.17,0.7044
2663.53,0.7054
2664.9,0.706
2666.27,0.7081
2667.64,0.7092
2669.02,0.7108
2670.39,0.716
2671.77,0.7201
2673.14,0.7225
2674.52,0.7271
2675.9,0.7315
2677.28,0.7362
2678.67,0.7426
2680.05,0.7492
2681.44,0.7554
2682.82,0.7616
2684.21,0.7689
2685.6,0.7749
2686.99,0.7795
2688.39,0.7855
2689.78,0.7925
2691.18,0.8
2692.57,0.806
2693.97,0.8102
2695.37,0.8156
2696.77,0.8217
2698.18,0.825
2699.58,0.8301
2700.99,0.8359
2702.4,0.8414
2703.8,0.8458
2705.22,0.8491
2706.63,0.8506
2708.04,0.8536
2709.45,0.8568
2710.87,0.8599
2712.29,0.8622
2713.71,0.8667
2715.13,0.87
2716.55,0.874
2717.97,0.8777
2719.4,0.8783
2720.83,0.8795
2722.25,0.8827
2723.68,0.8861
2725.12,0.888
2726.55,0.8878
2727.98,0.8893
2729.42,0.8909
2730.86,0.8946
2732.29,0.9001
2733.73,0.9028
2735.18,0.9019
2736.62,0.905
2738.06,0.9083
2739.51,0.912
2740.96,0.9148
2742.41,0.9159
2743.86,0.9171
2745.31,0.9192
2746.77,0.9232
2748.22,0.9272
2749.68,0.9278
2751.14,0.93
2752.6,0.9333
2754.06,0.9339
2755.52,0.931
2756.99,0.9313
2758.45,0.9329
2759.92,0.9341
2761.39,0.9341
2762.86,0.9326
2764.33,0.9318
2765.81,0.9321
2767.28,0.9306
2768.76,0.9302
2770.24,0.9306
2771.72,0.9313
2773.2,0.9338
2774.69,0.9364
2776.17,0.9365
2777.66,0.9372
2779.15,0.9372
2780.64,0.9359
2782.13,0.9343
2783.62,0.9352
2785.12,0.9373
2786.61,0.9376
2788.11,0.9372
2789.61,0.9385
2791.11,0.939
2792.62,0.9405
2794.12,0.9391
2795.63,0.9376
2797.14,0.9381
2798.64,0.9397
2800.16,0.9411
2801.67,0.9427
2803.18,0.9456
2804.7,0.9482
2806.22,0.9485
2807.74,0.9477
2809.26,0.9458
2810.78,0.944
2812.3,0.9444
2813.83,0.9433
2815.36,0.943
2816.89,0.9435
2818.42,0.9432
2819.95,0.9433
2821.48,0.9436
2823.02,0.9436
2824.56,0.9439
2826.1,0.9448
2827.64,0.9455
2829.18,0.9468
2830.72,0.9486
2832.27,0.9481
2833.82,0.9453
2835.37,0.9445
2836.92,0.9453
2838.47,0.9468
2840.02,0.9476
2841.58,0.9481
2843.14,0.9495
2844.7,0.9504
2846.26,0.9501
2847.82,0.9487
2849.39,0.9499
2850.95,0.9516
2852.52,0.9524
2854.09,0.9519
2855.66,0.9505
2857.24,0.9509
2858.81,0.9525
2860.39,0.9541
2861.97,0.9533
2863.55,0.953
2865.13,0.9519
2866.71,0.9504
2868.3,0.9496
2869.88,0.9499
2871.47,0.9501
2873.06,0.9504
2874.66,0.9508
2876.25,0.9516
2877.85,0.9521
2879.45,0.9525
2881.04,0.952
2882.65,0.9523
2884.25,0.9519
2885.85,0.952
2887.46,0.9531
2889.07,0.9536
2890.68,0.9531
2892.29,0.9533
2893.91,0.954
2895.52,0.9547
2897.14,0.9533
2898.76,0.9529
2900.38,0.9525
2902.0,0.9526
2903.63,0.9531
2905.25,0.9546
2906.88,0.9551
2908.51,0.9551
2910.14,0.9542
2911.78,0.9542
2913.41,0.955
2915.05,0.9555
2916.69,0.9561
2918.33,0.9563
2919.98,0.9556
2921.62,0.9565
2923.27,0.9573
2924.92,0.9572
2926.57,0.9567
2928.22,0.9572
2929.87,0.956
2931.53,0.9554
2933.19,0.9557
2934.85,0.9563
2936.51,0.9573
2938.17,0.9575
2939.84,0.9561
2941.51,0.957
2943.18,0.9587
2944.85,0.9589
2946.52,0.9574
2948.19,0.9583
2949.87,0.9577
2951.55,0.9557
2953.23,0.9558
2954.91,0.9573
2956.6,0.9583
2958.28,0.9589
2959.97,0.9574
2961.66,0.9572
2963.36,0.958
2965.05,0.9596
2966.75,0.96
2968.44,0.9584
2970.14,0.9577
2971.85,0.958
2973.55,0.956
2975.26,0.955
2976.96,0.9545
2978.67,0.9544
2980.39,0.9561
2982.1,0.9563
2983.82,0.9558
2985.53,0.9557
2987.25,0.9559
2988.97,0.9549
2990.7,0.954
2992.42,0.9548
2994.15,0.9547
2995.88,0.9539
2997.61,0.953
2999.35,0.9526
3001.08,0.953
3002.82,0.9553
3004.56,0.9548
3006.3,0.9538
3008.04,0.9529
3009.79,0.9526
3011.54,0.953
3013.29,0.9531
3015.04,0.9533
3016.79,0.9537
3018.55,0.9536
3020.31,0.9545
3022.07,0.9538
3023.83,0.9527
3025.59,0.9523
3027.36,0.9524
3029.13,0.953
3030.9,0.9531
3032.67,0.9521
3034.44,0.9522
3036.22,0.9516
3038.0,0.9513
3039.78,0.9519
3041.56,0.9524
3043.35,0.9528
3045.14,0.9524
3046.92,0.9517
3048.72,0.9512
3050.51,0.9513
3052.3,0.9529
3054.1,0.9533
3055.9,0.9519
3057.7,0.9503
3059.51,0.95
3061.31,0.9499
3063.12,0.9503
3064.93,0.9494
3066.74,0.9485
3068.56,0.9486
3070.37,0.9487
3072.19,0.9496
3074.01,0.9505
3075.84,0.9496
3077.66,0.9496
3079.49,0.9492
3081.32,0.9483
3083.15,0.9477
3084.99,0.9476
3086.82,0.9473
3088.66,0.9472
3090.5,0.9474
3092.34,0.9473
3094.19,0.9454
3096.04,0.9453
3097.89,0.9459
3099.74,0.9447
3101.59,0.9433
3103.45,0.943
3105.31,0.9437
3107.17,0.9436
3109.03,0.9423
3110.89,0.9403
3112.76,0.9405
3114.63,0.9408
3116.5,0.9405
3118.38,0.9395
3120.25,0.9387
3122.13,0.9399
3124.01,0.94
3125.89,0.9394
3127.78,0.9386
3129.67,0.9381
3131.56,0.9367
3133.45,0.9351
3135.34,0.9349
3137.24,0.9356
3139.14,0.9351
3141.04,0.9349
3142.94,0.9352
3144.85,0.9344
3146.76,0.9336
3148.67,0.9338
3150.58,0.9328
3152.5,0.932
3154.41,0.9311
3156.33,0.93
3158.25,0.93
3160.18,0.931
3162.11,0.9307
3164.04,0.929
3165.97,0.9282
3167.9,0.9281
3169.84,0.9275
3171.78,0.9277
3173.72,0.9275
3175.66,0.9261
3177.61,0.9252
3179.55,0.9254
3181.5,0.9254
3183.46,0.9252
3185.41,0.9244
3187.37,0.923
3189.33,0.9219
3191.29,0.9217
3193.26,0.921
3195.23,0.9211
3197.2,0.9209
3199.17,0.9203
3201.14,0.92
3203.12,0.9197
3205.1,0.9194
3207.08,0.9191
3209.07,0.9184
3211.05,0.9172
3213.04,0.9164
3215.03,0.9165
3217.03,0.9176
3219.03,0.9179
3221.02,0.9173
3223.03,0.916
3225.03,0.9149
3227.04,0.9148
3229.05,0.9144
3231.06,0.9142
3233.07,0.9141
3235.09,0.9138
3237.11,0.9135
3239.13,0.9132
3241.15,0.9124
3243.18,0.9121
3245.21,0.9117
3247.24,0.9113
3249.28,0.9101
3251.31,0.9102
3253.35,0.9106
3255.4,0.9098
3257.44,0.9078
3259.49,0.9066
3261.54,0.9054
3263.59,0.904
3265.65,0.9029
3267.7,0.9029
3269.76,0.9033
3271.83,0.9028
3273.89,0.9019
3275.96,0.9008
3278.03,0.8995
3280.1,0.8989
3282.18,0.898
3284.26,0.8968
3286.34,0.8961
3288.42,0.8949
3290.51,0.8936
3292.6,0.8937
3294.69,0.8939
3296.78,0.893
3298.88,0.8916
3300.98,0.891
3303.08,0.8904
3305.19,0.8898
3307.3,0.8891
3309.41,0.888
3311.52,0.8871
3313.64,0.8862
3315.75,0.8847
3317.88,0.8843
3320.0,0.8834
3322.13,0.8826
3324.26,0.8824
3326.39,0.8824
3328.52,0.8808
3330.66,0.8796
3332.8,0.8791
3334.94,0.8783
3337.09,0.8773
3339.24,0.8769
3341.39,0.8766
3343.54,0.8764
3345.7,0.8752
3347.86,0.8743
3350.02,0.8736
3352.19,0.8726
3354.36,0.8709
3356.53,0.8695
3358.7,0.8698
3360.88,0.8688
3363.06,0.8669
3365.24,0.8661
3367.43,0.8651
3369.61,0.8649
3371.8,0.8647
3374.0,0.863
3376.19,0.8611
3378.39,0.8607
3380.6,0.8604
3382.8,0.8589
3385.01,0.8568
3387.22,0.8565
3389.43,0.8564
3391.65,0.8563
3393.87,0.8561
3396.09,0.8549
3398.32,0.8529
3400.55,0.8524
3402.78,0.8522
3405.01,0.8514
3407.25,0.8506
3409.49,0.8494
3411.73,0.8476
3413.98,0.8459
3416.23,0.8446
3418.48,0.8437
3420.73,0.8433
3422.99,0.8434
3425.25,0.8422
3427.51,0.8419
3429.78,0.8416
3432.05,0.8412
3434.32,0.8404
3436.6,0.8407
3438.88,0.8405
3441.16,0.8403
3443.45,0.8403
3445.73,0.8395
3448.02,0.8388
3450.32,0.8394
3452.61,0.8387
3454.91,0.8376
3457.22,0.8367
3459.52,0.8359
3461.83,0.8356
3464.15,0.8345
3466.46,0.8332
3468.78,0.8326
3471.1,0.8328
3473.43,0.8327
3475.75,0.8315
3478.09,0.8303
3480.42,0.829
3482.76,0.8278
3485.1,0.8268
3487.44,0.8247
3489.79,0.8232
3492.14,0.8223
3494.49,0.8203
3496.85,0.8185
3499.21,0.8165
3501.57,0.8151
3503.93,0.8136
3506.3,0.8122
3508.68,0.8109
3511.05,0.8098
3513.43,0.8085
3515.81,0.8074
3518.2,0.8063
3520.58,0.8053
3522.98,0.804
3525.37,0.803
3527.77,0.8017
3530.17,0.8005
3532.57,0.7991
3534.98,0.7981
3537.39,0.7964
3539.81,0.7948
3542.23,0.7941
3544.65,0.7939
3547.07,0.7929
3549.5,0.792
3551.93,0.7907
3554.36,0.7896
3556.8,0.7886
3559.24,0.7887
3561.69,0.7879
3564.14,0.7858
3566.59,0.7842
3569.04,0.7834
3571.5,0.7824
3573.96,0.7816
3576.42,0.7804
3578.89,0.7797
3581.36,0.7796
3583.84,0.7794
3586.32,0.7775
3588.8,0.7762
3591.28,0.7753
3593.77,0.7742
3596.26,0.7734
3598.76,0.7729
3601.26,0.7726
3603.76,0.7722
3606.27,0.7717
3608.78,0.7711
3611.29,0.7711
3613.81,0.7707
3616.33,0.7693
3618.85,0.7684
3621.38,0.7678
3623.91,0.7674
3626.44,0.7665
3628.98,0.7663
3631.52,0.7659
3634.06,0.7655
3636.61,0.7645
3639.16,0.7635
3641.72,0.7631
3644.28,0.7629
3646.84,0.7628
3649.41,0.7624
3651.98,0.7613
3654.55,0.7601
3657.13,0.7591
3659.71,0.7582
3662.29,0.7576
3664.88,0.7572
3667.47,0.7566
3670.07,0.7556
3672.67,0.755
3675.27,0.7546
3677.88,0.754
3680.49,0.7536
3683.1,0.7529
3685.72,0.7521
3688.34,0.7515
3690.96,0.7514
3693.59,0.7512
3696.23,0.7499
3698.86,0.7498
3701.5,0.7499
3704.15,0.7493
3706.79,0.7484
3709.44,0.7475
3712.1,0.7473
3714.76,0.747
3717.42,0.7464
3720.09,0.746
3722.76,0.7463
3725.43,0.746
3728.11,0.7456
3730.79,0.7453
3733.48,0.7459
3736.17,0.7463
3738.86,0.7466
3741.56,0.7466
3744.26,0.7474
3746.97,0.7488
3749.67,0.7496
3752.39,0.7495
3755.1,0.75
3757.83,0.7514
3760.55,0.7526
3763.28,0.7535
3766.01,0.7547
3768.75,0.7561
3771.49,0.757
3774.23,0.758
3776.98,0.7584
3779.74,0.7581
3782.49,0.7585
3785.25,0.7593
3788.02,0.761
3790.79,0.7625
3793.56,0.7634
3796.34,0.7638
3799.12,0.765
3801.9,0.7656
3804.69,0.7657
3807.48,0.7655
3810.28,0.764
3813.08,0.7625
3815.89,0.7619
3818.7,0.7615
3821.51,0.7608
3824.33,0.7599
3827.15,0.7593
3829.98,0.7596
3832.81,0.7603
3835.64,0.7599
3838.48,0.7601
3841.33,0.7611
3844.17,0.7624
3847.03,0.7637
3849.88,0.7648
3852.74,0.7656
3855.61,0.7665
3858.47,0.7663
3861.35,0.7663
3864.22,0.7665
3867.11,0.7671
3869.99,0.7679
3872.88,0.7685
3875.78,0.7684
3878.67,0.7684
3881.58,0.768
3884.48,0.7679
3887.4,0.7679
3890.31,0.7684
3893.23,0.7692
3896.16,0.77
3899.09,0.7707
3902.02,0.7714
3904.96,0.7722
3907.9,0.773
3910.85,0.7743
3913.8,0.7756
3916.76,0.7761
3919.72,0.7772
3922.68,0.7775
3925.65,0.778
3928.62,0.7785
3931.6,0.7785
3934.58,0.7787
3937.57,0.7801
3940.56,0.7818
3943.56,0.7837
3946.56,0.7849
3949.57,0.7844
3952.58,0.7844
3955.59,0.7858
3958.61,0.7869
3961.63,0.7871
3964.66,0.7871
3967.7,0.7872
3970.73,0.7863
3973.78,0.7845
3976.82,0.7828
3979.88,0.7813
3982.93,0.7801
3985.99,0.779
3989.06,0.7775
3992.13,0.7755
3995.21,0.7735
3998.29,0.7722
4001.37,0.7709
4004.46,0.769
4007.55,0.7667
4010.65,0.765
4013.76,0.7636
4016.87,0.7621
4019.98,0.762
4023.1,0.7619
4026.22,0.7613
4029.35,0.7604
4032.48,0.7596
4035.62,0.7596
4038.76,0.7589
4041.91,0.7584
4045.06,0.7591
4048.22,0.7589
4051.38,0.7587
4054.55,0.7599
4057.72,0.7606
4060.9,0.761
4064.08,0.7611
4067.27,0.7624
4070.46,0.7633
4073.66,0.7639
4076.86,0.7641
4080.07,0.7642
4083.28,0.7648
4086.5,0.7656
4089.72,0.7659
4092.95,0.7671
4096.18,0.7684
4099.42,0.7691
4102.66,0.7701
4105.91,0.7711
4109.16,0.7713
4112.42,0.7723
4115.69,0.773
4118.96,0.7733
4122.23,0.7737
4125.51,0.775
4128.79,0.7765
4132.08,0.7778
4135.38,0.7794
4138.68,0.7807
4141.98,0.7813
4145.29,0.7823
4148.61,0.7831
