Database of Origin,University of Winnipeg Spectrophotometer Facility
Sample Description,8. Sulfates - Jim Crowley (USGS) IR spectra /  Crowley IR spectra
Date Added,2016-07-15 22:04:24.139933

Data ID,CWL_SUL_17          
Sample ID,Bloedite
Mineral Name,Bloedite
Locality,"Soda Lake, CA"
Grain Size,~250
Viewing Geometry,unknown
Resolution,0.08-40
Material Class,Sulfate

Wavelength
2083.55,0.7828
2084.39,0.7813
2085.23,0.7822
2086.06,0.7829
2086.9,0.7837
2087.74,0.7839
2088.58,0.7827
2089.43,0.7812
2090.27,0.7816
2091.11,0.7822
2091.95,0.783
2092.8,0.7819
2093.64,0.7839
2094.49,0.7858
2095.33,0.7854
2096.18,0.7833
2097.03,0.785
2097.88,0.7833
2098.73,0.7807
2099.58,0.7812
2100.43,0.7805
2101.28,0.782
2102.13,0.7851
2102.98,0.7848
2103.83,0.7839
2104.69,0.7848
2105.54,0.7839
2106.4,0.7819
2107.25,0.7817
2108.11,0.78
2108.97,0.7799
2109.83,0.7823
2110.68,0.7841
2111.54,0.7833
2112.4,0.7828
2113.27,0.7825
2114.13,0.7826
2114.99,0.7799
2115.85,0.78
2116.72,0.7832
2117.58,0.7851
2118.44,0.7836
2119.31,0.7822
2120.18,0.7807
2121.04,0.7818
2121.91,0.7829
2122.78,0.7827
2123.65,0.7809
2124.52,0.7825
2125.39,0.7829
2126.26,0.7808
2127.13,0.7804
2128.01,0.7821
2128.88,0.7816
2129.75,0.7823
2130.63,0.7831
2131.5,0.7822
2132.38,0.7811
2133.26,0.7828
2134.14,0.7823
2135.01,0.7797
2135.89,0.7801
2136.77,0.7805
2137.65,0.7789
2138.54,0.7806
2139.42,0.781
2140.3,0.7803
2141.18,0.7794
2142.07,0.7785
2142.95,0.78
2143.84,0.7799
2144.73,0.7791
2145.61,0.781
2146.5,0.7833
2147.39,0.7818
2148.28,0.7799
2149.17,0.7802
2150.06,0.7816
2150.95,0.782
2151.85,0.7799
2152.74,0.7776
2153.63,0.7781
2154.53,0.7803
2155.42,0.7798
2156.32,0.781
2157.22,0.7806
2158.11,0.7777
2159.01,0.777
2159.91,0.7788
2160.81,0.777
2161.71,0.7774
2162.61,0.7796
2163.52,0.7809
2164.42,0.78
2165.32,0.7809
2166.23,0.7802
2167.13,0.7792
2168.04,0.7804
2168.94,0.7794
2169.85,0.7784
2170.76,0.7782
2171.67,0.777
2172.58,0.7783
2173.49,0.7814
2174.4,0.7811
2175.31,0.7788
2176.23,0.7775
2177.14,0.7785
2178.05,0.7801
2178.97,0.7782
2179.89,0.7761
2180.8,0.7762
2181.72,0.7793
2182.64,0.7808
2183.56,0.7799
2184.48,0.778
2185.4,0.7788
2186.32,0.7797
2187.24,0.7783
2188.16,0.7762
2189.09,0.7781
2190.01,0.7785
2190.94,0.7765
2191.86,0.7751
2192.79,0.7751
2193.72,0.7757
2194.64,0.7772
2195.57,0.7776
2196.5,0.7763
2197.43,0.7746
2198.37,0.7745
2199.3,0.7751
2200.23,0.7767
2201.16,0.7765
2202.1,0.7758
2203.03,0.7763
2203.97,0.7774
2204.91,0.7781
2205.85,0.7793
2206.78,0.7802
2207.72,0.7795
2208.66,0.779
2209.61,0.7794
2210.55,0.7789
2211.49,0.7787
2212.43,0.7784
2213.38,0.7788
2214.32,0.7773
2215.27,0.7764
2216.21,0.7755
2217.16,0.7766
2218.11,0.7777
2219.06,0.7789
2220.01,0.7791
2220.96,0.7775
2221.91,0.7761
2222.86,0.7765
2223.82,0.7738
2224.77,0.7733
2225.73,0.7762
2226.68,0.7769
2227.64,0.7743
2228.6,0.7742
2229.55,0.775
2230.51,0.7759
2231.47,0.7746
2232.43,0.7709
2233.39,0.7698
2234.36,0.7715
2235.32,0.771
2236.28,0.77
2237.25,0.7697
2238.21,0.771
2239.18,0.7713
2240.15,0.7721
2241.12,0.7718
2242.08,0.7721
2243.05,0.7713
2244.02,0.7717
2245.0,0.7711
2245.97,0.7715
2246.94,0.7713
2247.91,0.7714
2248.89,0.7705
2249.87,0.7698
2250.84,0.7687
2251.82,0.7683
2252.8,0.7689
2253.78,0.7697
2254.76,0.7692
2255.74,0.7709
2256.72,0.7713
2257.7,0.7695
2258.68,0.7681
2259.67,0.7692
2260.65,0.7699
2261.64,0.7714
2262.63,0.7724
2263.61,0.7719
2264.6,0.7695
2265.59,0.7695
2266.58,0.7714
2267.57,0.7731
2268.56,0.7719
2269.56,0.7716
2270.55,0.7731
2271.55,0.7728
2272.54,0.7719
2273.54,0.7713
2274.53,0.7721
2275.53,0.7729
2276.53,0.7724
2277.53,0.772
2278.53,0.7713
2279.53,0.7716
2280.54,0.7712
2281.54,0.7715
2282.54,0.7701
2283.55,0.7702
2284.55,0.7719
2285.56,0.774
2286.57,0.774
2287.58,0.7726
2288.59,0.7715
2289.6,0.7723
2290.61,0.7732
2291.62,0.7729
2292.63,0.7722
2293.65,0.7735
2294.66,0.7737
2295.68,0.7747
2296.69,0.7744
2297.71,0.7728
2298.73,0.7723
2299.75,0.7753
2300.77,0.7764
2301.79,0.7777
2302.81,0.7773
2303.84,0.7761
2304.86,0.7762
2305.88,0.7784
2306.91,0.7793
2307.94,0.779
2308.96,0.7804
2309.99,0.782
2311.02,0.7824
2312.05,0.7834
2313.08,0.7835
2314.12,0.783
2315.15,0.7807
2316.18,0.782
2317.22,0.7838
2318.25,0.7848
2319.29,0.7862
2320.33,0.7872
2321.37,0.7866
2322.41,0.7863
2323.45,0.7858
2324.49,0.7869
2325.53,0.7904
2326.57,0.7923
2327.62,0.7931
2328.66,0.7917
2329.71,0.7899
2330.76,0.7908
2331.8,0.7919
2332.85,0.7923
2333.9,0.7928
2334.95,0.7935
2336.01,0.7955
2337.06,0.7976
2338.11,0.7982
2339.17,0.7987
2340.22,0.7997
2341.28,0.8007
2342.34,0.8019
2343.39,0.8013
2344.45,0.7997
2345.51,0.8019
2346.57,0.8041
2347.64,0.8047
2348.7,0.8057
2349.76,0.8067
2350.83,0.8079
2351.9,0.8087
2352.96,0.81
2354.03,0.8102
2355.1,0.81
2356.17,0.812
2357.24,0.8133
2358.31,0.814
2359.39,0.8152
2360.46,0.8175
2361.53,0.8169
2362.61,0.8163
2363.69,0.8175
2364.76,0.8197
2365.84,0.8208
2366.92,0.8214
2368.0,0.8219
2369.09,0.8245
2370.17,0.8246
2371.25,0.8239
2372.34,0.8242
2373.42,0.8253
2374.51,0.8258
2375.6,0.8268
2376.69,0.8283
2377.78,0.8299
2378.87,0.831
2379.96,0.8325
2381.05,0.8338
2382.14,0.8349
2383.24,0.8351
2384.33,0.8355
2385.43,0.8352
2386.53,0.8373
2387.63,0.8384
2388.73,0.8393
2389.83,0.839
2390.93,0.8408
2392.03,0.8445
2393.14,0.8452
2394.24,0.8446
2395.35,0.8464
2396.45,0.8475
2397.56,0.848
2398.67,0.8497
2399.78,0.8511
2400.89,0.8514
2402.0,0.8519
2403.12,0.8529
2404.23,0.8545
2405.35,0.854
2406.46,0.8556
2407.58,0.8582
2408.7,0.8592
2409.82,0.8595
2410.94,0.8604
2412.06,0.8622
2413.18,0.8639
2414.3,0.8638
2415.43,0.8648
2416.55,0.8665
2417.68,0.867
2418.81,0.8667
2419.94,0.8662
2421.07,0.8668
2422.2,0.8693
2423.33,0.8709
2424.46,0.872
2425.6,0.8715
2426.73,0.871
2427.87,0.8713
2429.0,0.8729
2430.14,0.8737
2431.28,0.8728
2432.42,0.8718
2433.56,0.8726
2434.71,0.8739
2435.85,0.8747
2436.99,0.8747
2438.14,0.8757
2439.29,0.8768
2440.43,0.8773
2441.58,0.8766
2442.73,0.8749
2443.88,0.8747
2445.04,0.8757
2446.19,0.8755
2447.34,0.8771
2448.5,0.8763
2449.66,0.875
2450.81,0.8749
2451.97,0.8757
2453.13,0.8757
2454.29,0.876
2455.45,0.8775
2456.62,0.8794
2457.78,0.8785
2458.95,0.8776
2460.11,0.8765
2461.28,0.8787
2462.45,0.8801
2463.62,0.8791
2464.79,0.8769
2465.96,0.8768
2467.14,0.878
2468.31,0.8789
2469.49,0.8793
2470.66,0.8795
2471.84,0.8796
2473.02,0.8781
2474.2,0.8767
2475.38,0.8778
2476.56,0.8799
2477.74,0.8807
2478.93,0.8788
2480.11,0.8781
2481.3,0.8784
2482.49,0.8794
2483.68,0.8794
2484.87,0.8802
2486.06,0.8797
2487.25,0.8796
2488.44,0.8799
2489.64,0.8792
2490.83,0.8791
2492.03,0.881
2493.23,0.8816
2494.43,0.8814
2495.63,0.8803
2496.83,0.8809
2498.03,0.8802
2499.24,0.8799
2500.44,0.8815
2501.65,0.8828
2502.86,0.8813
2504.06,0.8788
2505.27,0.8801
2506.48,0.882
2507.7,0.881
2508.91,0.88
2510.12,0.88
2511.34,0.88
2512.56,0.8806
2513.77,0.881
2514.99,0.8806
2516.21,0.8809
2517.43,0.8811
2518.66,0.882
2519.88,0.8835
2521.11,0.8838
2522.33,0.8827
2523.56,0.8828
2524.79,0.8836
2526.02,0.8843
2527.25,0.8828
2528.48,0.882
2529.71,0.882
2530.95,0.8828
2532.18,0.884
2533.42,0.8855
2534.66,0.8855
2535.9,0.8855
2537.14,0.886
2538.38,0.8871
2539.62,0.8872
2540.87,0.8865
2542.11,0.8853
2543.36,0.8866
2544.61,0.8879
2545.86,0.8871
2547.11,0.8857
2548.36,0.8866
2549.61,0.8876
2550.87,0.8879
2552.12,0.8871
2553.38,0.887
2554.64,0.8881
2555.89,0.8886
2557.16,0.8877
2558.42,0.888
2559.68,0.8883
2560.94,0.8882
2562.21,0.8875
2563.48,0.8871
2564.74,0.8878
2566.01,0.8883
2567.28,0.8884
2568.55,0.8884
2569.83,0.8869
2571.1,0.8871
2572.38,0.8881
2573.65,0.8878
2574.93,0.8869
2576.21,0.8873
2577.49,0.8872
2578.77,0.8868
2580.05,0.8877
2581.34,0.8887
2582.62,0.8877
2583.91,0.8862
2585.2,0.8871
2586.49,0.8884
2587.78,0.8871
2589.07,0.8869
2590.36,0.8873
2591.66,0.8885
2592.95,0.8871
2594.25,0.8856
2595.55,0.8854
2596.85,0.8864
2598.15,0.8872
2599.45,0.8881
2600.76,0.8874
2602.06,0.8871
2603.37,0.888
2604.67,0.8882
2605.98,0.8877
2607.29,0.888
2608.6,0.8871
2609.92,0.8879
2611.23,0.8887
2612.55,0.8882
2613.86,0.8894
2615.18,0.8898
2616.5,0.889
2617.82,0.8892
2619.14,0.889
2620.47,0.8895
2621.79,0.8904
2623.12,0.8912
2624.45,0.8921
2625.77,0.8926
2627.1,0.8921
2628.44,0.8919
2629.77,0.8909
2631.1,0.8922
2632.44,0.8931
2633.78,0.8938
2635.11,0.8939
2636.45,0.8941
2637.79,0.8948
2639.14,0.8961
2640.48,0.8964
2641.83,0.8968
2643.17,0.8961
2644.52,0.8963
2645.87,0.8973
2647.22,0.8983
2648.57,0.8983
2649.92,0.8997
2651.28,0.9013
2652.64,0.9011
2653.99,0.9009
2655.35,0.9015
2656.71,0.9021
2658.07,0.903
2659.44,0.9036
2660.8,0.9055
2662.17,0.9053
2663.53,0.9056
2664.9,0.906
2666.27,0.9066
2667.64,0.9067
2669.02,0.9077
2670.39,0.9086
2671.77,0.9098
2673.14,0.912
2674.52,0.9126
2675.9,0.911
2677.28,0.9125
2678.67,0.9155
2680.05,0.9156
2681.44,0.916
2682.82,0.9177
2684.21,0.9188
2685.6,0.9204
2686.99,0.92
2688.39,0.921
2689.78,0.9226
2691.18,0.9238
2692.57,0.9245
2693.97,0.9261
2695.37,0.9277
2696.77,0.9293
2698.18,0.9308
2699.58,0.9324
2700.99,0.9332
2702.4,0.9339
2703.8,0.9352
2705.22,0.9368
2706.63,0.9378
2708.04,0.9386
2709.45,0.9395
2710.87,0.9404
2712.29,0.9424
2713.71,0.945
2715.13,0.9461
2716.55,0.9469
2717.97,0.9472
2719.4,0.9485
2720.83,0.9491
2722.25,0.9505
2723.68,0.9529
2725.12,0.9545
2726.55,0.9555
2727.98,0.9559
2729.42,0.9559
2730.86,0.9574
2732.29,0.9599
2733.73,0.9612
2735.18,0.9615
2736.62,0.9623
2738.06,0.9635
2739.51,0.9647
2740.96,0.9663
2742.41,0.9674
2743.86,0.9683
2745.31,0.9699
2746.77,0.9692
2748.22,0.9704
2749.68,0.9722
2751.14,0.9724
2752.6,0.9728
2754.06,0.9741
2755.52,0.9746
2756.99,0.9755
2758.45,0.9771
2759.92,0.9782
2761.39,0.9781
2762.86,0.9782
2764.33,0.9785
2765.81,0.9788
2767.28,0.979
2768.76,0.9801
2770.24,0.9801
2771.72,0.9805
2773.2,0.9816
2774.69,0.9818
2776.17,0.9813
2777.66,0.9818
2779.15,0.9816
2780.64,0.981
2782.13,0.9819
2783.62,0.9834
2785.12,0.9842
2786.61,0.9847
2788.11,0.9833
2789.61,0.9834
2791.11,0.9838
2792.62,0.9846
2794.12,0.9848
2795.63,0.9841
2797.14,0.9842
2798.64,0.9846
2800.16,0.9841
2801.67,0.9858
2803.18,0.9869
2804.7,0.9865
2806.22,0.9851
2807.74,0.9851
2809.26,0.9852
2810.78,0.9853
2812.3,0.9859
2813.83,0.9865
2815.36,0.9857
2816.89,0.986
2818.42,0.987
2819.95,0.9876
2821.48,0.9861
2823.02,0.9862
2824.56,0.9861
2826.1,0.9865
2827.64,0.9873
2829.18,0.9876
2830.72,0.9879
2832.27,0.9881
2833.82,0.9871
2835.37,0.9876
2836.92,0.9877
2838.47,0.9886
2840.02,0.9895
2841.58,0.9898
2843.14,0.9888
2844.7,0.9882
2846.26,0.9884
2847.82,0.9886
2849.39,0.9879
2850.95,0.9869
2852.52,0.9866
2854.09,0.9872
2855.66,0.9883
2857.24,0.9892
2858.81,0.9884
2860.39,0.9885
2861.97,0.9878
2863.55,0.9874
2865.13,0.9881
2866.71,0.9894
2868.3,0.989
2869.88,0.9888
2871.47,0.9891
2873.06,0.9889
2874.66,0.9894
2876.25,0.9893
2877.85,0.988
2879.45,0.9878
2881.04,0.9882
2882.65,0.9881
2884.25,0.9879
2885.85,0.9885
2887.46,0.9888
2889.07,0.9884
2890.68,0.9881
2892.29,0.9887
2893.91,0.9889
2895.52,0.989
2897.14,0.9889
2898.76,0.988
2900.38,0.988
2902.0,0.9891
2903.63,0.9888
2905.25,0.9883
2906.88,0.9882
2908.51,0.9882
2910.14,0.988
2911.78,0.9879
2913.41,0.9883
2915.05,0.9881
2916.69,0.9872
2918.33,0.9877
2919.98,0.9882
2921.62,0.9884
2923.27,0.988
2924.92,0.9879
2926.57,0.9879
2928.22,0.9871
2929.87,0.9864
2931.53,0.987
2933.19,0.9879
2934.85,0.9882
2936.51,0.9872
2938.17,0.9875
2939.84,0.9883
2941.51,0.9876
2943.18,0.9869
2944.85,0.9866
2946.52,0.9859
2948.19,0.9859
2949.87,0.9871
2951.55,0.9883
2953.23,0.9885
2954.91,0.9884
2956.6,0.9872
2958.28,0.9863
2959.97,0.9867
2961.66,0.9874
2963.36,0.9877
2965.05,0.9877
2966.75,0.9877
2968.44,0.9879
2970.14,0.9869
2971.85,0.987
2973.55,0.9871
2975.26,0.9874
2976.96,0.9869
2978.67,0.9866
2980.39,0.9867
2982.1,0.9866
2983.82,0.9864
2985.53,0.9867
2987.25,0.9865
2988.97,0.9873
2990.7,0.9877
2992.42,0.9873
2994.15,0.987
2995.88,0.9867
2997.61,0.9862
2999.35,0.986
3001.08,0.986
3002.82,0.9867
3004.56,0.9864
3006.3,0.9865
3008.04,0.9865
3009.79,0.9866
3011.54,0.9867
3013.29,0.9865
3015.04,0.9858
3016.79,0.9861
3018.55,0.9859
3020.31,0.9862
3022.07,0.9867
3023.83,0.9868
3025.59,0.986
3027.36,0.9854
3029.13,0.986
3030.9,0.9866
3032.67,0.9861
3034.44,0.9855
3036.22,0.9859
3038.0,0.9864
3039.78,0.9861
3041.56,0.9869
3043.35,0.9872
3045.14,0.987
3046.92,0.9864
3048.72,0.9869
3050.51,0.9867
3052.3,0.9865
3054.1,0.9865
3055.9,0.9865
3057.7,0.986
3059.51,0.9854
3061.31,0.9851
3063.12,0.9852
3064.93,0.9854
3066.74,0.9856
3068.56,0.9858
3070.37,0.9861
3072.19,0.9858
3074.01,0.9857
3075.84,0.9856
3077.66,0.9857
3079.49,0.9856
3081.32,0.986
3083.15,0.9859
3084.99,0.9858
3086.82,0.9855
3088.66,0.9854
3090.5,0.9856
3092.34,0.9861
3094.19,0.9859
3096.04,0.9858
3097.89,0.9858
3099.74,0.9857
3101.59,0.9853
3103.45,0.9855
3105.31,0.9853
3107.17,0.9856
3109.03,0.9856
3110.89,0.9855
3112.76,0.9855
3114.63,0.9854
3116.5,0.9849
3118.38,0.9849
3120.25,0.9851
3122.13,0.9847
3124.01,0.9841
3125.89,0.9845
3127.78,0.9848
3129.67,0.985
3131.56,0.9846
3133.45,0.9839
3135.34,0.9845
3137.24,0.9852
3139.14,0.9847
3141.04,0.9841
3142.94,0.9838
3144.85,0.9842
3146.76,0.9842
3148.67,0.9845
3150.58,0.984
3152.5,0.9834
3154.41,0.9829
3156.33,0.9836
3158.25,0.9842
3160.18,0.9838
3162.11,0.983
3164.04,0.983
3165.97,0.9829
3167.9,0.9833
3169.84,0.9835
3171.78,0.9835
3173.72,0.9828
3175.66,0.9828
3177.61,0.9829
3179.55,0.9826
3181.5,0.9825
3183.46,0.9825
3185.41,0.9826
3187.37,0.9829
3189.33,0.9825
3191.29,0.9827
3193.26,0.9828
3195.23,0.9825
3197.2,0.982
3199.17,0.9816
3201.14,0.9815
3203.12,0.9816
3205.1,0.9816
3207.08,0.9817
3209.07,0.9816
3211.05,0.982
3213.04,0.9825
3215.03,0.9821
3217.03,0.9812
3219.03,0.9817
3221.02,0.9824
3223.03,0.9818
3225.03,0.9809
3227.04,0.9812
3229.05,0.9817
3231.06,0.9815
3233.07,0.9811
3235.09,0.981
3237.11,0.9809
3239.13,0.9809
3241.15,0.9813
3243.18,0.9817
3245.21,0.9814
3247.24,0.9814
3249.28,0.9814
3251.31,0.9813
3253.35,0.9811
3255.4,0.9809
3257.44,0.9804
3259.49,0.9806
3261.54,0.9804
3263.59,0.9807
3265.65,0.981
3267.7,0.981
3269.76,0.9804
3271.83,0.98
3273.89,0.9797
3275.96,0.9797
3278.03,0.9795
3280.1,0.9796
3282.18,0.9796
3284.26,0.9799
3286.34,0.9802
3288.42,0.9801
3290.51,0.9797
3292.6,0.9793
3294.69,0.9791
3296.78,0.9794
3298.88,0.9792
3300.98,0.9785
3303.08,0.9784
3305.19,0.9788
3307.3,0.9793
3309.41,0.9796
3311.52,0.9793
3313.64,0.9791
3315.75,0.9788
3317.88,0.9787
3320.0,0.9779
3322.13,0.9774
3324.26,0.9772
3326.39,0.9777
3328.52,0.9779
3330.66,0.9779
3332.8,0.9778
3334.94,0.9774
3337.09,0.9774
3339.24,0.9773
3341.39,0.9772
3343.54,0.9774
3345.7,0.9772
3347.86,0.9772
3350.02,0.9771
3352.19,0.9765
3354.36,0.9763
3356.53,0.9761
3358.7,0.9761
3360.88,0.9761
3363.06,0.9758
3365.24,0.9757
3367.43,0.9755
3369.61,0.9754
3371.8,0.9748
3374.0,0.9744
3376.19,0.9743
3378.39,0.9743
3380.6,0.9739
3382.8,0.974
3385.01,0.9741
3387.22,0.9741
3389.43,0.974
3391.65,0.9738
3393.87,0.9729
3396.09,0.9725
3398.32,0.9724
3400.55,0.9726
3402.78,0.9724
3405.01,0.9716
3407.25,0.9709
3409.49,0.9715
3411.73,0.9717
3413.98,0.9711
3416.23,0.9707
3418.48,0.9705
3420.73,0.9697
3422.99,0.9696
3425.25,0.9695
3427.51,0.9695
3429.78,0.9693
3432.05,0.9692
3434.32,0.9691
3436.6,0.9691
3438.88,0.9686
3441.16,0.9691
3443.45,0.9691
3445.73,0.9691
3448.02,0.9687
3450.32,0.9685
3452.61,0.9682
3454.91,0.9684
3457.22,0.9682
3459.52,0.9678
3461.83,0.9674
3464.15,0.9669
3466.46,0.9664
3468.78,0.9666
3471.1,0.9668
3473.43,0.9667
3475.75,0.9661
3478.09,0.9658
3480.42,0.9655
3482.76,0.9659
3485.1,0.9659
3487.44,0.9655
3489.79,0.9646
3492.14,0.9645
3494.49,0.964
3496.85,0.9641
3499.21,0.9639
3501.57,0.9634
3503.93,0.9632
3506.3,0.9635
3508.68,0.9632
3511.05,0.9629
3513.43,0.9626
3515.81,0.9624
3518.2,0.9619
3520.58,0.9617
3522.98,0.9618
3525.37,0.9621
3527.77,0.9621
3530.17,0.9621
3532.57,0.9616
3534.98,0.9608
3537.39,0.9608
3539.81,0.9613
3542.23,0.9609
3544.65,0.9606
3547.07,0.9599
3549.5,0.9597
3551.93,0.9596
3554.36,0.9593
3556.8,0.9588
3559.24,0.9589
3561.69,0.959
3564.14,0.9584
3566.59,0.9579
3569.04,0.9578
3571.5,0.9578
3573.96,0.9581
3576.42,0.9579
3578.89,0.9575
3581.36,0.957
3583.84,0.9568
3586.32,0.9564
3588.8,0.9565
3591.28,0.9563
3593.77,0.956
3596.26,0.9553
3598.76,0.9552
3601.26,0.9552
3603.76,0.9548
3606.27,0.9549
3608.78,0.955
3611.29,0.9545
3613.81,0.9545
3616.33,0.9545
3618.85,0.9543
3621.38,0.9537
3623.91,0.9531
3626.44,0.9531
3628.98,0.9532
3631.52,0.9532
3634.06,0.9532
3636.61,0.9526
3639.16,0.9523
3641.72,0.9525
3644.28,0.9524
3646.84,0.9517
3649.41,0.9511
3651.98,0.9511
3654.55,0.9512
3657.13,0.9511
3659.71,0.9511
3662.29,0.951
3664.88,0.9507
3667.47,0.9504
3670.07,0.9502
3672.67,0.9497
3675.27,0.9501
3677.88,0.9503
3680.49,0.95
3683.1,0.9499
3685.72,0.9497
3688.34,0.9496
3690.96,0.9496
3693.59,0.9492
3696.23,0.9493
3698.86,0.9493
3701.5,0.9492
3704.15,0.9489
3706.79,0.949
3709.44,0.9489
3712.1,0.9488
3714.76,0.9487
3717.42,0.949
3720.09,0.9488
3722.76,0.9484
3725.43,0.9483
3728.11,0.9484
3730.79,0.9489
3733.48,0.9489
3736.17,0.9486
3738.86,0.9488
3741.56,0.9486
3744.26,0.9485
3746.97,0.9487
3749.67,0.9488
3752.39,0.9486
3755.1,0.9484
3757.83,0.9479
3760.55,0.9478
3763.28,0.9481
3766.01,0.9485
3768.75,0.9482
3771.49,0.9481
3774.23,0.9481
3776.98,0.9483
3779.74,0.9484
3782.49,0.9486
3785.25,0.9482
3788.02,0.9479
3790.79,0.9474
3793.56,0.9474
3796.34,0.9474
3799.12,0.948
3801.9,0.9486
3804.69,0.9482
3807.48,0.9472
3810.28,0.947
3813.08,0.9473
3815.89,0.9474
3818.7,0.947
3821.51,0.947
3824.33,0.9471
3827.15,0.9473
3829.98,0.9471
3832.81,0.9471
3835.64,0.9469
3838.48,0.9466
3841.33,0.9468
3844.17,0.947
3847.03,0.9472
3849.88,0.9467
3852.74,0.9466
3855.61,0.9472
3858.47,0.947
3861.35,0.9466
3864.22,0.9466
3867.11,0.9463
3869.99,0.9459
3872.88,0.9462
3875.78,0.946
3878.67,0.9459
3881.58,0.946
3884.48,0.9458
3887.4,0.9453
3890.31,0.9451
3893.23,0.9452
3896.16,0.945
3899.09,0.9451
3902.02,0.9454
3904.96,0.9454
3907.9,0.9457
3910.85,0.9457
3913.8,0.9455
3916.76,0.9455
3919.72,0.9459
3922.68,0.9458
3925.65,0.9457
3928.62,0.9461
3931.6,0.9463
3934.58,0.9458
3937.57,0.9457
3940.56,0.9461
3943.56,0.9466
3946.56,0.947
3949.57,0.9475
3952.58,0.9474
3955.59,0.947
3958.61,0.9469
3961.63,0.9476
3964.66,0.9483
3967.7,0.9484
3970.73,0.9487
3973.78,0.9492
3976.82,0.9496
3979.88,0.9501
3982.93,0.9504
3985.99,0.9504
3989.06,0.9505
3992.13,0.9509
3995.21,0.9513
3998.29,0.9518
4001.37,0.9521
4004.46,0.9523
4007.55,0.9525
4010.65,0.9525
4013.76,0.9524
4016.87,0.9528
4019.98,0.9531
4023.1,0.9534
4026.22,0.9533
4029.35,0.9531
4032.48,0.9532
4035.62,0.9536
4038.76,0.9535
4041.91,0.9531
4045.06,0.953
4048.22,0.9532
4051.38,0.9532
4054.55,0.9533
4057.72,0.9531
4060.9,0.9529
4064.08,0.9529
4067.27,0.9533
4070.46,0.9533
4073.66,0.9536
4076.86,0.9536
4080.07,0.9533
4083.28,0.9533
4086.5,0.9535
4089.72,0.9533
4092.95,0.953
4096.18,0.9526
4099.42,0.9527
4102.66,0.9526
4105.91,0.9521
4109.16,0.9524
4112.42,0.9527
4115.69,0.9523
4118.96,0.9521
4122.23,0.9525
4125.51,0.9526
4128.79,0.9524
4132.08,0.9522
4135.38,0.9519
4138.68,0.9517
4141.98,0.9517
4145.29,0.9515
4148.61,0.9516
