Database of Origin,University of Winnipeg Spectrophotometer Facility
Sample Description,8. Sulfates - Jim Crowley (USGS) IR spectra /  Crowley IR spectra
Date Added,2016-07-15 22:04:24.095915

Data ID,CWL_SUL_15          
Sample ID,Bloedite
Mineral Name,Bloedite
Locality,"Soda Lake, CA"
Grain Size,~250
Viewing Geometry,unknown
Resolution,0.08-40
Material Class,Sulfate

Wavelength
2083.55,0.7767
2084.39,0.7796
2085.23,0.7795
2086.06,0.7789
2086.9,0.7786
2087.74,0.7804
2088.58,0.7846
2089.43,0.7841
2090.27,0.7793
2091.11,0.7784
2091.95,0.7789
2092.8,0.7771
2093.64,0.7723
2094.49,0.7715
2095.33,0.7753
2096.18,0.7782
2097.03,0.7785
2097.88,0.7818
2098.73,0.7814
2099.58,0.7817
2100.43,0.7786
2101.28,0.7754
2102.13,0.7759
2102.98,0.7767
2103.83,0.7776
2104.69,0.7723
2105.54,0.7675
2106.4,0.7733
2107.25,0.7721
2108.11,0.7696
2108.97,0.7696
2109.83,0.7713
2110.68,0.772
2111.54,0.7701
2112.4,0.7684
2113.27,0.7666
2114.13,0.766
2114.99,0.7659
2115.85,0.7633
2116.72,0.7615
2117.58,0.7628
2118.44,0.7681
2119.31,0.7686
2120.18,0.7645
2121.04,0.762
2121.91,0.7605
2122.78,0.756
2123.65,0.7548
2124.52,0.7569
2125.39,0.7597
2126.26,0.7598
2127.13,0.7575
2128.01,0.7526
2128.88,0.7501
2129.75,0.7444
2130.63,0.7443
2131.5,0.7466
2132.38,0.7463
2133.26,0.746
2134.14,0.7458
2135.01,0.743
2135.89,0.7425
2136.77,0.7422
2137.65,0.7422
2138.54,0.7405
2139.42,0.7386
2140.3,0.7366
2141.18,0.7383
2142.07,0.7397
2142.95,0.7383
2143.84,0.7367
2144.73,0.7351
2145.61,0.7329
2146.5,0.7323
2147.39,0.7282
2148.28,0.7233
2149.17,0.7251
2150.06,0.7253
2150.95,0.7238
2151.85,0.7238
2152.74,0.7212
2153.63,0.7212
2154.53,0.7213
2155.42,0.7222
2156.32,0.7208
2157.22,0.7168
2158.11,0.7151
2159.01,0.7148
2159.91,0.7144
2160.81,0.7123
2161.71,0.7081
2162.61,0.7083
2163.52,0.7064
2164.42,0.7093
2165.32,0.7134
2166.23,0.7098
2167.13,0.7062
2168.04,0.7043
2168.94,0.7016
2169.85,0.7031
2170.76,0.7037
2171.67,0.7047
2172.58,0.703
2173.49,0.7004
2174.4,0.7002
2175.31,0.6999
2176.23,0.6974
2177.14,0.6976
2178.05,0.697
2178.97,0.6961
2179.89,0.6967
2180.8,0.6991
2181.72,0.695
2182.64,0.6928
2183.56,0.6942
2184.48,0.6977
2185.4,0.695
2186.32,0.6925
2187.24,0.6927
2188.16,0.6927
2189.09,0.6921
2190.01,0.6919
2190.94,0.6912
2191.86,0.6922
2192.79,0.6911
2193.72,0.6917
2194.64,0.6922
2195.57,0.6918
2196.5,0.6867
2197.43,0.6874
2198.37,0.6893
2199.3,0.6869
2200.23,0.6873
2201.16,0.6864
2202.1,0.6847
2203.03,0.6873
2203.97,0.688
2204.91,0.6884
2205.85,0.6856
2206.78,0.6839
2207.72,0.6845
2208.66,0.6859
2209.61,0.6866
2210.55,0.6861
2211.49,0.6848
2212.43,0.6846
2213.38,0.6848
2214.32,0.6846
2215.27,0.6818
2216.21,0.6796
2217.16,0.6816
2218.11,0.6833
2219.06,0.68
2220.01,0.6796
2220.96,0.6807
2221.91,0.6835
2222.86,0.6837
2223.82,0.6823
2224.77,0.6799
2225.73,0.6792
2226.68,0.6797
2227.64,0.6813
2228.6,0.6818
2229.55,0.6803
2230.51,0.6788
2231.47,0.6796
2232.43,0.6788
2233.39,0.6823
2234.36,0.6816
2235.32,0.6808
2236.28,0.6808
2237.25,0.6795
2238.21,0.679
2239.18,0.6791
2240.15,0.6797
2241.12,0.6811
2242.08,0.6822
2243.05,0.6827
2244.02,0.6819
2245.0,0.6854
2245.97,0.6866
2246.94,0.6844
2247.91,0.6835
2248.89,0.6865
2249.87,0.6858
2250.84,0.6866
2251.82,0.6855
2252.8,0.6832
2253.78,0.6819
2254.76,0.6854
2255.74,0.6888
2256.72,0.6884
2257.7,0.689
2258.68,0.6898
2259.67,0.6903
2260.65,0.691
2261.64,0.6897
2262.63,0.689
2263.61,0.687
2264.6,0.6898
2265.59,0.691
2266.58,0.6918
2267.57,0.6933
2268.56,0.696
2269.56,0.6942
2270.55,0.6937
2271.55,0.6956
2272.54,0.6967
2273.54,0.6973
2274.53,0.6996
2275.53,0.7006
2276.53,0.7004
2277.53,0.7001
2278.53,0.7023
2279.53,0.7044
2280.54,0.7055
2281.54,0.7051
2282.54,0.7059
2283.55,0.7055
2284.55,0.7062
2285.56,0.7073
2286.57,0.7084
2287.58,0.7101
2288.59,0.7135
2289.6,0.7121
2290.61,0.7124
2291.62,0.7159
2292.63,0.7201
2293.65,0.7209
2294.66,0.7192
2295.68,0.7178
2296.69,0.7182
2297.71,0.7187
2298.73,0.7221
2299.75,0.7242
2300.77,0.7248
2301.79,0.725
2302.81,0.725
2303.84,0.7274
2304.86,0.7315
2305.88,0.7315
2306.91,0.7334
2307.94,0.7352
2308.96,0.7352
2309.99,0.7321
2311.02,0.7332
2312.05,0.7354
2313.08,0.7409
2314.12,0.7434
2315.15,0.7422
2316.18,0.7432
2317.22,0.7463
2318.25,0.7462
2319.29,0.7477
2320.33,0.7505
2321.37,0.7524
2322.41,0.7522
2323.45,0.7521
2324.49,0.7527
2325.53,0.755
2326.57,0.757
2327.62,0.7578
2328.66,0.7592
2329.71,0.7608
2330.76,0.7616
2331.8,0.7652
2332.85,0.7683
2333.9,0.7717
2334.95,0.772
2336.01,0.7717
2337.06,0.7722
2338.11,0.7727
2339.17,0.7755
2340.22,0.7781
2341.28,0.7789
2342.34,0.7822
2343.39,0.7825
2344.45,0.7838
2345.51,0.7848
2346.57,0.7861
2347.64,0.7874
2348.7,0.7906
2349.76,0.7934
2350.83,0.7928
2351.9,0.7928
2352.96,0.7949
2354.03,0.7987
2355.1,0.8051
2356.17,0.8047
2357.24,0.8044
2358.31,0.8051
2359.39,0.8078
2360.46,0.8088
2361.53,0.8089
2362.61,0.8118
2363.69,0.8134
2364.76,0.8129
2365.84,0.8172
2366.92,0.8186
2368.0,0.8187
2369.09,0.8212
2370.17,0.8224
2371.25,0.8228
2372.34,0.8255
2373.42,0.828
2374.51,0.8281
2375.6,0.8258
2376.69,0.8273
2377.78,0.8311
2378.87,0.833
2379.96,0.835
2381.05,0.8393
2382.14,0.8399
2383.24,0.8412
2384.33,0.8417
2385.43,0.8423
2386.53,0.8442
2387.63,0.8466
2388.73,0.8461
2389.83,0.8453
2390.93,0.8471
2392.03,0.8497
2393.14,0.851
2394.24,0.8535
2395.35,0.8542
2396.45,0.8563
2397.56,0.8576
2398.67,0.8597
2399.78,0.8626
2400.89,0.8658
2402.0,0.8655
2403.12,0.8676
2404.23,0.8687
2405.35,0.8696
2406.46,0.872
2407.58,0.8736
2408.7,0.8752
2409.82,0.8748
2410.94,0.8752
2412.06,0.8784
2413.18,0.8794
2414.3,0.8808
2415.43,0.8838
2416.55,0.8868
2417.68,0.8878
2418.81,0.8857
2419.94,0.8855
2421.07,0.8889
2422.2,0.8894
2423.33,0.8904
2424.46,0.8927
2425.6,0.895
2426.73,0.8945
2427.87,0.8933
2429.0,0.8934
2430.14,0.897
2431.28,0.8965
2432.42,0.8925
2433.56,0.8915
2434.71,0.8934
2435.85,0.8942
2436.99,0.8942
2438.14,0.8932
2439.29,0.8939
2440.43,0.8925
2441.58,0.892
2442.73,0.8927
2443.88,0.8925
2445.04,0.8913
2446.19,0.8911
2447.34,0.8907
2448.5,0.8906
2449.66,0.8899
2450.81,0.8893
2451.97,0.889
2453.13,0.8898
2454.29,0.8895
2455.45,0.8891
2456.62,0.8877
2457.78,0.8873
2458.95,0.8864
2460.11,0.8871
2461.28,0.8876
2462.45,0.8864
2463.62,0.8837
2464.79,0.8855
2465.96,0.8841
2467.14,0.882
2468.31,0.8829
2469.49,0.8825
2470.66,0.8811
2471.84,0.881
2473.02,0.8798
2474.2,0.8808
2475.38,0.8813
2476.56,0.8809
2477.74,0.8794
2478.93,0.878
2480.11,0.8768
2481.3,0.879
2482.49,0.8813
2483.68,0.8815
2484.87,0.8806
2486.06,0.8797
2487.25,0.8786
2488.44,0.8789
2489.64,0.8794
2490.83,0.8807
2492.03,0.8813
2493.23,0.8814
2494.43,0.88
2495.63,0.8801
2496.83,0.8812
2498.03,0.8812
2499.24,0.8806
2500.44,0.8827
2501.65,0.8856
2502.86,0.8858
2504.06,0.8841
2505.27,0.8846
2506.48,0.8848
2507.7,0.8871
2508.91,0.8872
2510.12,0.8869
2511.34,0.888
2512.56,0.8901
2513.77,0.8887
2514.99,0.8876
2516.21,0.8873
2517.43,0.8878
2518.66,0.888
2519.88,0.8887
2521.11,0.889
2522.33,0.8909
2523.56,0.8913
2524.79,0.8931
2526.02,0.8924
2527.25,0.8947
2528.48,0.8962
2529.71,0.8963
2530.95,0.8965
2532.18,0.8969
2533.42,0.8951
2534.66,0.8962
2535.9,0.898
2537.14,0.8995
2538.38,0.8996
2539.62,0.8999
2540.87,0.9001
2542.11,0.9013
2543.36,0.9017
2544.61,0.9027
2545.86,0.9025
2547.11,0.9042
2548.36,0.9043
2549.61,0.9029
2550.87,0.9021
2552.12,0.9038
2553.38,0.903
2554.64,0.9032
2555.89,0.9044
2557.16,0.9039
2558.42,0.9024
2559.68,0.9027
2560.94,0.9009
2562.21,0.9017
2563.48,0.9028
2564.74,0.9018
2566.01,0.9017
2567.28,0.9023
2568.55,0.9016
2569.83,0.9008
2571.1,0.8992
2572.38,0.9003
2573.65,0.9009
2574.93,0.9009
2576.21,0.8997
2577.49,0.8993
2578.77,0.8996
2580.05,0.8995
2581.34,0.8984
2582.62,0.8985
2583.91,0.8989
2585.2,0.8998
2586.49,0.8996
2587.78,0.8999
2589.07,0.8996
2590.36,0.8999
2591.66,0.8986
2592.95,0.8974
2594.25,0.8976
2595.55,0.8978
2596.85,0.8976
2598.15,0.8977
2599.45,0.8974
2600.76,0.8979
2602.06,0.8967
2603.37,0.8973
2604.67,0.8968
2605.98,0.8967
2607.29,0.8972
2608.6,0.8983
2609.92,0.8972
2611.23,0.8965
2612.55,0.8958
2613.86,0.8973
2615.18,0.8982
2616.5,0.8987
2617.82,0.8973
2619.14,0.8966
2620.47,0.8973
2621.79,0.8978
2623.12,0.8976
2624.45,0.8986
2625.77,0.8999
2627.1,0.8997
2628.44,0.8967
2629.77,0.8958
2631.1,0.8976
2632.44,0.8988
2633.78,0.9008
2635.11,0.9025
2636.45,0.9014
2637.79,0.9014
2639.14,0.9005
2640.48,0.8994
2641.83,0.8993
2643.17,0.9018
2644.52,0.9026
2645.87,0.9031
2647.22,0.903
2648.57,0.9025
2649.92,0.9026
2651.28,0.9036
2652.64,0.903
2653.99,0.903
2655.35,0.9045
2656.71,0.9066
2658.07,0.9073
2659.44,0.9075
2660.8,0.908
2662.17,0.9083
2663.53,0.9098
2664.9,0.9105
2666.27,0.9105
2667.64,0.9108
2669.02,0.9093
2670.39,0.9094
2671.77,0.9104
2673.14,0.9123
2674.52,0.9132
2675.9,0.9146
2677.28,0.9141
2678.67,0.9134
2680.05,0.9132
2681.44,0.9148
2682.82,0.9159
2684.21,0.9163
2685.6,0.9169
2686.99,0.9186
2688.39,0.9186
2689.78,0.9199
2691.18,0.9206
2692.57,0.9221
2693.97,0.9228
2695.37,0.9233
2696.77,0.9244
2698.18,0.9254
2699.58,0.9246
2700.99,0.9251
2702.4,0.9273
2703.8,0.9296
2705.22,0.9299
2706.63,0.9293
2708.04,0.9303
2709.45,0.933
2710.87,0.9345
2712.29,0.9343
2713.71,0.9343
2715.13,0.936
2716.55,0.936
2717.97,0.9365
2719.4,0.9381
2720.83,0.9399
2722.25,0.9404
2723.68,0.9413
2725.12,0.9425
2726.55,0.9431
2727.98,0.9436
2729.42,0.9454
2730.86,0.9468
2732.29,0.9469
2733.73,0.9483
2735.18,0.9518
2736.62,0.952
2738.06,0.9516
2739.51,0.9521
2740.96,0.9541
2742.41,0.9547
2743.86,0.9546
2745.31,0.9554
2746.77,0.9575
2748.22,0.9591
2749.68,0.9614
2751.14,0.9612
2752.6,0.9614
2754.06,0.9613
2755.52,0.9628
2756.99,0.9644
2758.45,0.9654
2759.92,0.9646
2761.39,0.9648
2762.86,0.9661
2764.33,0.968
2765.81,0.9685
2767.28,0.97
2768.76,0.9703
2770.24,0.9692
2771.72,0.9695
2773.2,0.9733
2774.69,0.9743
2776.17,0.9729
2777.66,0.9716
2779.15,0.9737
2780.64,0.9751
2782.13,0.9748
2783.62,0.9749
2785.12,0.9766
2786.61,0.9776
2788.11,0.9787
2789.61,0.9797
2791.11,0.9803
2792.62,0.9798
2794.12,0.9802
2795.63,0.9804
2797.14,0.9805
2798.64,0.9807
2800.16,0.982
2801.67,0.9822
2803.18,0.9816
2804.7,0.9818
2806.22,0.9824
2807.74,0.9825
2809.26,0.9842
2810.78,0.9845
2812.3,0.9839
2813.83,0.9838
2815.36,0.9843
2816.89,0.984
2818.42,0.9826
2819.95,0.9821
2821.48,0.9851
2823.02,0.9855
2824.56,0.9848
2826.1,0.9847
2827.64,0.9845
2829.18,0.9838
2830.72,0.9835
2832.27,0.9834
2833.82,0.9844
2835.37,0.985
2836.92,0.9867
2838.47,0.9859
2840.02,0.9844
2841.58,0.9838
2843.14,0.9846
2844.7,0.9851
2846.26,0.9857
2847.82,0.9871
2849.39,0.9872
2850.95,0.9859
2852.52,0.9857
2854.09,0.9858
2855.66,0.9869
2857.24,0.987
2858.81,0.9876
2860.39,0.9864
2861.97,0.986
2863.55,0.9863
2865.13,0.9852
2866.71,0.9846
2868.3,0.9872
2869.88,0.9875
2871.47,0.9858
2873.06,0.9842
2874.66,0.9859
2876.25,0.9861
2877.85,0.986
2879.45,0.9865
2881.04,0.9864
2882.65,0.9857
2884.25,0.9862
2885.85,0.9856
2887.46,0.9854
2889.07,0.9858
2890.68,0.9854
2892.29,0.9839
2893.91,0.9834
2895.52,0.983
2897.14,0.9838
2898.76,0.9844
2900.38,0.9857
2902.0,0.9851
2903.63,0.9839
2905.25,0.9829
2906.88,0.9832
2908.51,0.9827
2910.14,0.9836
2911.78,0.9843
2913.41,0.983
2915.05,0.9815
2916.69,0.9828
2918.33,0.9835
2919.98,0.984
2921.62,0.9844
2923.27,0.9854
2924.92,0.9848
2926.57,0.984
2928.22,0.9829
2929.87,0.9829
2931.53,0.9833
2933.19,0.9842
2934.85,0.9846
2936.51,0.9841
2938.17,0.9827
2939.84,0.9823
2941.51,0.9821
2943.18,0.9838
2944.85,0.9834
2946.52,0.9831
2948.19,0.983
2949.87,0.9825
2951.55,0.9831
2953.23,0.9839
2954.91,0.9823
2956.6,0.9817
2958.28,0.9819
2959.97,0.9827
2961.66,0.9827
2963.36,0.9827
2965.05,0.9827
2966.75,0.9825
2968.44,0.9823
2970.14,0.9824
2971.85,0.982
2973.55,0.9817
2975.26,0.9809
2976.96,0.9814
2978.67,0.9827
2980.39,0.9832
2982.1,0.9816
2983.82,0.9805
2985.53,0.9814
2987.25,0.9821
2988.97,0.9808
2990.7,0.9813
2992.42,0.9812
2994.15,0.9821
2995.88,0.9819
2997.61,0.9814
2999.35,0.9808
3001.08,0.9812
3002.82,0.9813
3004.56,0.9816
3006.3,0.9812
3008.04,0.9807
3009.79,0.9812
3011.54,0.9812
3013.29,0.9808
3015.04,0.9802
3016.79,0.9798
3018.55,0.9793
3020.31,0.9794
3022.07,0.9803
3023.83,0.9798
3025.59,0.9807
3027.36,0.9817
3029.13,0.9818
3030.9,0.9805
3032.67,0.9801
3034.44,0.9802
3036.22,0.9805
3038.0,0.9802
3039.78,0.9806
3041.56,0.9803
3043.35,0.98
3045.14,0.9799
3046.92,0.9806
3048.72,0.9806
3050.51,0.981
3052.3,0.9807
3054.1,0.9802
3055.9,0.98
3057.7,0.9792
3059.51,0.9788
3061.31,0.98
3063.12,0.9814
3064.93,0.9803
3066.74,0.9788
3068.56,0.9794
3070.37,0.98
3072.19,0.9802
3074.01,0.9799
3075.84,0.9798
3077.66,0.9804
3079.49,0.9805
3081.32,0.9801
3083.15,0.9806
3084.99,0.98
3086.82,0.9795
3088.66,0.9794
3090.5,0.9804
3092.34,0.9813
3094.19,0.9805
3096.04,0.979
3097.89,0.9791
3099.74,0.9789
3101.59,0.9784
3103.45,0.9779
3105.31,0.9792
3107.17,0.9792
3109.03,0.9792
3110.89,0.9795
3112.76,0.9792
3114.63,0.978
3116.5,0.9782
3118.38,0.9782
3120.25,0.9773
3122.13,0.9767
3124.01,0.977
3125.89,0.9774
3127.78,0.9773
3129.67,0.976
3131.56,0.9756
3133.45,0.9762
3135.34,0.9762
3137.24,0.9757
3139.14,0.9752
3141.04,0.9745
3142.94,0.9745
3144.85,0.9737
3146.76,0.9735
3148.67,0.9733
3150.58,0.9725
3152.5,0.9725
3154.41,0.9728
3156.33,0.9721
3158.25,0.9717
3160.18,0.9723
3162.11,0.9723
3164.04,0.9716
3165.97,0.9716
3167.9,0.972
3169.84,0.9719
3171.78,0.9707
3173.72,0.9702
3175.66,0.9709
3177.61,0.9719
3179.55,0.9724
3181.5,0.9723
3183.46,0.9713
3185.41,0.9713
3187.37,0.9708
3189.33,0.9707
3191.29,0.9711
3193.26,0.9717
3195.23,0.9711
3197.2,0.9717
3199.17,0.971
3201.14,0.9705
3203.12,0.9704
3205.1,0.9714
3207.08,0.9714
3209.07,0.9715
3211.05,0.9712
3213.04,0.9712
3215.03,0.9709
3217.03,0.9713
3219.03,0.9718
3221.02,0.9719
3223.03,0.9718
3225.03,0.9716
3227.04,0.971
3229.05,0.9716
3231.06,0.9718
3233.07,0.9717
3235.09,0.9714
3237.11,0.9713
3239.13,0.9714
3241.15,0.9719
3243.18,0.971
3245.21,0.971
3247.24,0.9707
3249.28,0.9704
3251.31,0.9708
3253.35,0.9716
3255.4,0.9712
3257.44,0.9707
3259.49,0.9711
3261.54,0.9715
3263.59,0.9709
3265.65,0.9706
3267.7,0.9704
3269.76,0.971
3271.83,0.9714
3273.89,0.971
3275.96,0.9702
3278.03,0.9703
3280.1,0.9704
3282.18,0.9708
3284.26,0.9711
3286.34,0.9708
3288.42,0.97
3290.51,0.9698
3292.6,0.9691
3294.69,0.9693
3296.78,0.9694
3298.88,0.9696
3300.98,0.9697
3303.08,0.9696
3305.19,0.9694
3307.3,0.9694
3309.41,0.9692
3311.52,0.9693
3313.64,0.9692
3315.75,0.9691
3317.88,0.9688
3320.0,0.9692
3322.13,0.9688
3324.26,0.9681
3326.39,0.9679
3328.52,0.9683
3330.66,0.9685
3332.8,0.9683
3334.94,0.9674
3337.09,0.9672
3339.24,0.9671
3341.39,0.9677
3343.54,0.9681
3345.7,0.9676
3347.86,0.9665
3350.02,0.9666
3352.19,0.9663
3354.36,0.9665
3356.53,0.9665
3358.7,0.9667
3360.88,0.9664
3363.06,0.9661
3365.24,0.9654
3367.43,0.9654
3369.61,0.9661
3371.8,0.9668
3374.0,0.9659
3376.19,0.965
3378.39,0.9651
3380.6,0.965
3382.8,0.9647
3385.01,0.9649
3387.22,0.9643
3389.43,0.9642
3391.65,0.9634
3393.87,0.9634
3396.09,0.9639
3398.32,0.9643
3400.55,0.964
3402.78,0.9634
3405.01,0.9621
3407.25,0.9621
3409.49,0.9625
3411.73,0.963
3413.98,0.9619
3416.23,0.9611
3418.48,0.9603
3420.73,0.9604
3422.99,0.9612
3425.25,0.962
3427.51,0.9614
3429.78,0.9605
3432.05,0.96
3434.32,0.9605
3436.6,0.9602
3438.88,0.9603
3441.16,0.9603
3443.45,0.9602
3445.73,0.96
3448.02,0.9592
3450.32,0.9588
3452.61,0.9596
3454.91,0.9587
3457.22,0.958
3459.52,0.9577
3461.83,0.9583
3464.15,0.9584
3466.46,0.9583
3468.78,0.9575
3471.1,0.9571
3473.43,0.9567
3475.75,0.9562
3478.09,0.9558
3480.42,0.9557
3482.76,0.9552
3485.1,0.9551
3487.44,0.9552
3489.79,0.955
3492.14,0.9536
3494.49,0.9534
3496.85,0.953
3499.21,0.9532
3501.57,0.9531
3503.93,0.9523
3506.3,0.9518
3508.68,0.952
3511.05,0.9513
3513.43,0.9511
3515.81,0.9506
3518.2,0.9508
3520.58,0.9506
3522.98,0.9499
3525.37,0.9494
3527.77,0.9498
3530.17,0.9499
3532.57,0.9498
3534.98,0.9492
3537.39,0.949
3539.81,0.9483
3542.23,0.9475
3544.65,0.9472
3547.07,0.9476
3549.5,0.9471
3551.93,0.9463
3554.36,0.9454
3556.8,0.945
3559.24,0.9446
3561.69,0.9449
3564.14,0.9452
3566.59,0.9458
3569.04,0.9446
3571.5,0.9434
3573.96,0.9432
3576.42,0.9433
3578.89,0.9426
3581.36,0.9417
3583.84,0.9417
3586.32,0.9425
3588.8,0.9419
3591.28,0.9414
3593.77,0.9407
3596.26,0.9407
3598.76,0.9402
3601.26,0.9396
3603.76,0.9398
3606.27,0.9396
3608.78,0.939
3611.29,0.9386
3613.81,0.9381
3616.33,0.9378
3618.85,0.9369
3621.38,0.9362
3623.91,0.9358
3626.44,0.9358
3628.98,0.9362
3631.52,0.9366
3634.06,0.9358
3636.61,0.9348
3639.16,0.9342
3641.72,0.9346
3644.28,0.9345
3646.84,0.9335
3649.41,0.9323
3651.98,0.9319
3654.55,0.9315
3657.13,0.9315
3659.71,0.9318
3662.29,0.9318
3664.88,0.9304
3667.47,0.9294
3670.07,0.9295
3672.67,0.93
3675.27,0.9298
3677.88,0.9288
3680.49,0.9281
3683.1,0.928
3685.72,0.9279
3688.34,0.928
3690.96,0.9276
3693.59,0.9272
3696.23,0.9271
3698.86,0.927
3701.5,0.9266
3704.15,0.9265
3706.79,0.9262
3709.44,0.926
3712.1,0.9254
3714.76,0.9245
3717.42,0.9243
3720.09,0.9246
3722.76,0.9246
3725.43,0.9245
3728.11,0.9241
3730.79,0.9242
3733.48,0.9239
3736.17,0.9242
3738.86,0.9243
3741.56,0.9239
3744.26,0.9234
3746.97,0.9241
3749.67,0.9239
3752.39,0.9236
3755.1,0.9239
3757.83,0.9239
3760.55,0.9233
3763.28,0.9237
3766.01,0.9238
3768.75,0.9229
3771.49,0.9223
3774.23,0.9223
3776.98,0.9222
3779.74,0.9226
3782.49,0.9226
3785.25,0.922
3788.02,0.9212
3790.79,0.9219
3793.56,0.922
3796.34,0.9216
3799.12,0.9209
3801.9,0.9205
3804.69,0.9205
3807.48,0.9202
3810.28,0.9192
3813.08,0.9193
3815.89,0.919
3818.7,0.9186
3821.51,0.9176
3824.33,0.9178
3827.15,0.9178
3829.98,0.9175
3832.81,0.917
3835.64,0.9169
3838.48,0.9167
3841.33,0.9171
3844.17,0.917
3847.03,0.9166
3849.88,0.9154
3852.74,0.9149
3855.61,0.9152
3858.47,0.9153
3861.35,0.9151
3864.22,0.9157
3867.11,0.9156
3869.99,0.9149
3872.88,0.9141
3875.78,0.9146
3878.67,0.9142
3881.58,0.9139
3884.48,0.9139
3887.4,0.9141
3890.31,0.9143
3893.23,0.914
3896.16,0.9135
3899.09,0.9138
3902.02,0.9139
3904.96,0.9141
3907.9,0.9144
3910.85,0.9142
3913.8,0.9134
3916.76,0.9134
3919.72,0.9134
3922.68,0.9138
3925.65,0.9143
3928.62,0.9148
3931.6,0.914
3934.58,0.9136
3937.57,0.9134
3940.56,0.9135
3943.56,0.9142
3946.56,0.9144
3949.57,0.9142
3952.58,0.9153
3955.59,0.915
3958.61,0.915
3961.63,0.9147
3964.66,0.9138
3967.7,0.9135
3970.73,0.9143
3973.78,0.9152
3976.82,0.9156
3979.88,0.9152
3982.93,0.9155
3985.99,0.9158
3989.06,0.9163
3992.13,0.916
3995.21,0.9156
3998.29,0.9158
4001.37,0.9166
4004.46,0.9171
4007.55,0.9174
4010.65,0.9175
4013.76,0.9179
4016.87,0.9183
4019.98,0.9187
4023.1,0.9185
4026.22,0.919
4029.35,0.9191
4032.48,0.9187
4035.62,0.9193
4038.76,0.9202
4041.91,0.9201
4045.06,0.9202
4048.22,0.9212
4051.38,0.9218
4054.55,0.9214
4057.72,0.9219
4060.9,0.9221
4064.08,0.9219
4067.27,0.9224
4070.46,0.9231
4073.66,0.9231
4076.86,0.9239
4080.07,0.9245
4083.28,0.9249
4086.5,0.9256
4089.72,0.9261
4092.95,0.9254
4096.18,0.9254
4099.42,0.9262
4102.66,0.9269
4105.91,0.9273
4109.16,0.9278
4112.42,0.9282
4115.69,0.9287
4118.96,0.9293
4122.23,0.9296
4125.51,0.9296
4128.79,0.9301
4132.08,0.9299
4135.38,0.93
4138.68,0.9301
4141.98,0.9304
4145.29,0.9308
4148.61,0.9314
