Database of Origin,University of Winnipeg Spectrophotometer Facility
Sample Description,9.2. Magnetites: Maya spectra (PSF)
Date Added,2016-07-15 22:02:37.864002

Data ID,MAY_MAG_03          
Sample ID,MAG104
Mineral Name,Magnetite
Grain Size,<45 
Viewing Geometry,30 / 0
Resolution,0.42-0.48 
Material Class,Magnetite

Wavelength
198.73,0.0429
199.22,0.0431
199.7,0.044
200.18,0.0455
200.66,0.0441
201.14,0.0447
201.63,0.047
202.11,0.0435
202.59,0.0444
203.07,0.0452
203.55,0.0449
204.03,0.0445
204.52,0.0448
205.0,0.0458
205.48,0.0461
205.96,0.0453
206.44,0.0464
206.92,0.0445
207.41,0.0446
207.89,0.0462
208.37,0.0463
208.85,0.0441
209.33,0.0459
209.81,0.045
210.29,0.0447
210.77,0.0436
211.26,0.0451
211.74,0.0458
212.22,0.046
212.7,0.046
213.18,0.0471
213.66,0.0462
214.14,0.0435
214.62,0.0449
215.1,0.0448
215.59,0.0446
216.07,0.0446
216.55,0.0465
217.03,0.0457
217.51,0.0448
217.99,0.0454
218.47,0.045
218.95,0.0461
219.43,0.0431
219.91,0.0443
220.39,0.0447
220.87,0.0458
221.35,0.0452
221.83,0.0449
222.32,0.0452
222.8,0.0458
223.28,0.0409
223.76,0.0437
224.24,0.0445
224.72,0.0463
225.2,0.0425
225.68,0.0457
226.16,0.0444
226.64,0.0442
227.12,0.0476
227.6,0.0457
228.08,0.0451
228.56,0.0442
229.04,0.0416
229.52,0.044
230.0,0.0443
230.48,0.0431
230.96,0.0446
231.44,0.0433
231.92,0.0461
232.4,0.0448
232.88,0.0456
233.36,0.0457
233.84,0.0444
234.32,0.0443
234.8,0.0464
235.28,0.0451
235.76,0.0458
236.24,0.0445
236.72,0.045
237.2,0.0442
237.68,0.0468
238.16,0.0454
238.64,0.0459
239.11,0.0431
239.59,0.0469
240.07,0.0456
240.55,0.0469
241.03,0.0431
241.51,0.0433
241.99,0.0448
242.47,0.0429
242.95,0.0453
243.43,0.0453
243.91,0.0445
244.39,0.0444
244.87,0.0444
245.34,0.0432
245.82,0.0432
246.3,0.0436
246.78,0.0443
247.26,0.0454
247.74,0.0437
248.22,0.0454
248.7,0.046
249.18,0.0426
249.66,0.044
250.13,0.0462
250.61,0.0439
251.09,0.045
251.57,0.0442
252.05,0.0444
252.53,0.0411
253.01,0.0453
253.48,0.0447
253.96,0.0437
254.44,0.0452
254.92,0.0428
255.4,0.0401
255.88,0.0426
256.36,0.0449
256.83,0.0445
257.31,0.0425
257.79,0.0446
258.27,0.0445
258.75,0.0444
259.22,0.0454
259.7,0.0438
260.18,0.0454
260.66,0.0435
261.14,0.0448
261.62,0.0449
262.09,0.0428
262.57,0.0428
263.05,0.0425
263.53,0.0445
264.01,0.0448
264.48,0.0443
264.96,0.044
265.44,0.0453
265.92,0.0424
266.39,0.0451
266.87,0.0443
267.35,0.0434
267.83,0.0447
268.31,0.0437
268.78,0.0435
269.26,0.0417
269.74,0.0436
270.22,0.043
270.69,0.0421
271.17,0.0423
271.65,0.0445
272.13,0.0439
272.6,0.0433
273.08,0.0448
273.56,0.044
274.03,0.044
274.51,0.0439
274.99,0.0436
275.47,0.0437
275.94,0.0448
276.42,0.0447
276.9,0.0432
277.37,0.0441
277.85,0.0457
278.33,0.0465
278.81,0.0436
279.28,0.044
279.76,0.0454
280.24,0.0425
280.71,0.0438
281.19,0.0445
281.67,0.0436
282.14,0.0434
282.62,0.0469
283.1,0.044
283.57,0.0435
284.05,0.0436
284.53,0.0447
285.0,0.0444
285.48,0.0447
285.96,0.0446
286.43,0.043
286.91,0.0455
287.39,0.0445
287.86,0.0437
288.34,0.0441
288.82,0.023
289.29,0.0451
289.77,0.0434
290.24,0.0436
290.72,0.0451
291.2,0.0426
291.67,0.044
292.15,0.0457
292.63,0.0443
293.1,0.0451
293.58,0.0449
294.05,0.0454
294.53,0.0433
295.01,0.045
295.48,0.0448
295.96,0.0454
296.43,0.0463
296.91,0.0443
297.38,0.0448
297.86,0.0438
298.34,0.0451
298.81,0.0433
299.29,0.0444
299.76,0.0443
300.24,0.044
300.71,0.0424
301.19,0.0453
301.67,0.0439
302.14,0.0449
302.62,0.0451
303.09,0.0455
303.57,0.0453
304.04,0.0453
304.52,0.0473
304.99,0.0454
305.47,0.0461
305.94,0.0457
306.42,0.0447
306.89,0.045
307.37,0.0438
307.85,0.0459
308.32,0.0458
308.8,0.0449
309.27,0.0453
309.75,0.0453
310.22,0.0467
310.7,0.0446
311.17,0.0445
311.65,0.0467
312.12,0.0448
312.6,0.0457
313.07,0.0458
313.54,0.0466
314.02,0.0441
314.49,0.0468
314.97,0.0461
315.44,0.0454
315.92,0.0465
316.39,0.0454
316.87,0.0459
317.34,0.0452
317.82,0.0458
318.29,0.0454
318.77,0.0482
319.24,0.0467
319.71,0.0459
320.19,0.0457
320.66,0.0464
321.14,0.0467
321.61,0.0466
322.09,0.0452
322.56,0.0469
323.03,0.0452
323.51,0.0457
323.98,0.0473
324.46,0.0476
324.93,0.0454
325.41,0.044
325.88,0.0465
326.35,0.047
326.83,0.047
327.3,0.048
327.78,0.0465
328.25,0.0466
328.72,0.0489
329.2,0.0462
329.67,0.0487
330.14,0.0477
330.62,0.0464
331.09,0.0473
331.57,0.0479
332.04,0.0472
332.51,0.0478
332.99,0.0471
333.46,0.0465
333.93,0.0494
334.41,0.0463
334.88,0.0462
335.35,0.0474
335.83,0.0463
336.3,0.0472
336.77,0.0479
337.25,0.049
337.72,0.0463
338.19,0.0482
338.67,0.0469
339.14,0.0475
339.61,0.0468
340.09,0.0492
340.56,0.0481
341.03,0.0479
341.51,0.0474
341.98,0.0476
342.45,0.0483
342.92,0.0469
343.4,0.0477
343.87,0.0475
344.34,0.0481
344.82,0.0475
345.29,0.0475
345.76,0.0483
346.23,0.0476
346.71,0.0478
347.18,0.0473
347.65,0.0482
348.13,0.0481
348.6,0.0485
349.07,0.0484
349.54,0.0483
350.02,0.0484
350.49,0.0487
350.96,0.0474
351.43,0.0495
351.91,0.0482
352.38,0.0488
352.85,0.0491
353.32,0.0486
353.79,0.0499
354.27,0.0494
354.74,0.0492
355.21,0.0485
355.68,0.0489
356.16,0.0487
356.63,0.0493
357.1,0.0499
357.57,0.0489
358.04,0.0499
358.52,0.035
358.99,0.0492
359.46,0.0494
359.93,0.0489
360.4,0.0496
360.88,0.0491
361.35,0.0491
361.82,0.0494
362.29,0.0493
362.76,0.0497
363.23,0.0496
363.71,0.049
364.18,0.0489
364.65,0.0497
365.12,0.0494
365.59,0.0499
366.06,0.0492
366.54,0.05
367.01,0.0494
367.48,0.0497
367.95,0.0502
368.42,0.0499
368.89,0.0502
369.36,0.0501
369.84,0.0502
370.31,0.0498
370.78,0.0496
371.25,0.0491
371.72,0.0504
372.19,0.05
372.66,0.0493
373.13,0.0505
373.6,0.0502
374.08,0.0501
374.55,0.0501
375.02,0.0503
375.49,0.0503
375.96,0.0503
376.43,0.0502
376.9,0.0503
377.37,0.05
377.84,0.0504
378.31,0.0507
378.78,0.0502
379.25,0.051
379.73,0.0506
380.2,0.0501
380.67,0.0506
381.14,0.0504
381.61,0.0507
382.08,0.0502
382.55,0.0503
383.02,0.0509
383.49,0.0505
383.96,0.0505
384.43,0.0508
384.9,0.051
385.37,0.0508
385.84,0.0506
386.31,0.051
386.78,0.0505
387.25,0.0513
387.72,0.0508
388.19,0.0508
388.66,0.051
389.13,0.0506
389.6,0.0507
390.07,0.0507
390.54,0.0509
391.01,0.0507
391.48,0.051
391.95,0.0507
392.42,0.0516
392.89,0.0511
393.36,0.0508
393.83,0.0507
394.3,0.0512
394.77,0.0508
395.24,0.051
395.71,0.0512
396.18,0.051
396.65,0.0513
397.12,0.0512
397.59,0.051
398.06,0.051
398.53,0.0506
399.0,0.051
399.47,0.051
399.94,0.051
400.41,0.0509
400.87,0.0506
401.34,0.0508
401.81,0.0507
402.28,0.051
402.75,0.0509
403.22,0.0509
403.69,0.0511
404.16,0.051
404.63,0.051
405.1,0.0508
405.57,0.0507
406.04,0.0507
406.5,0.051
406.97,0.0508
407.44,0.0509
407.91,0.0509
408.38,0.0509
408.85,0.0508
409.32,0.051
409.79,0.051
410.26,0.051
410.72,0.0509
411.19,0.0507
411.66,0.0507
412.13,0.0509
412.6,0.0508
413.07,0.051
413.54,0.0506
414.0,0.0506
414.47,0.0507
414.94,0.0507
415.41,0.0507
415.88,0.0507
416.35,0.0506
416.82,0.0508
417.28,0.0507
417.75,0.0506
418.22,0.0508
418.69,0.0506
419.16,0.0509
419.62,0.0506
420.09,0.0505
420.56,0.0507
421.03,0.0507
421.5,0.0506
421.97,0.0505
422.43,0.0506
422.9,0.0505
423.37,0.0506
423.84,0.0505
424.3,0.0503
424.77,0.0504
425.24,0.0508
425.71,0.0503
426.18,0.0503
426.64,0.0505
427.11,0.0503
427.58,0.0504
428.05,0.0505
428.51,0.0504
428.98,0.0504
429.45,0.05
429.92,0.0503
430.38,0.0502
430.85,0.0502
431.32,0.0501
431.79,0.0504
432.25,0.0501
432.72,0.05
433.19,0.0503
433.66,0.0501
434.12,0.0501
434.59,0.05
435.06,0.0499
435.53,0.0501
435.99,0.05
436.46,0.0502
436.93,0.0499
437.39,0.05
437.86,0.0499
438.33,0.0498
438.79,0.0497
439.26,0.0499
439.73,0.0499
440.2,0.0495
440.66,0.0498
441.13,0.0497
441.6,0.0497
442.06,0.0497
442.53,0.0497
443.0,0.0496
443.46,0.0495
443.93,0.0495
444.4,0.0494
444.86,0.0495
445.33,0.0494
445.8,0.0495
446.26,0.0493
446.73,0.0495
447.2,0.0494
447.66,0.0494
448.13,0.0494
448.59,0.0493
449.06,0.0493
449.53,0.0492
449.99,0.0493
450.46,0.0494
450.93,0.0491
451.39,0.0492
451.86,0.0491
452.32,0.049
452.79,0.049
453.26,0.049
453.72,0.0492
454.19,0.049
454.65,0.0491
455.12,0.0489
455.59,0.0488
456.05,0.049
456.52,0.0489
456.98,0.049
457.45,0.049
457.92,0.0489
458.38,0.0489
458.85,0.0488
459.31,0.0489
459.78,0.0487
460.24,0.0487
460.71,0.0487
461.17,0.0487
461.64,0.0487
462.11,0.0486
462.57,0.0486
463.04,0.0488
463.5,0.0485
463.97,0.0487
464.43,0.0485
464.9,0.0486
465.36,0.0486
465.83,0.0486
466.29,0.0486
466.76,0.0486
467.22,0.0485
467.69,0.0485
468.16,0.0486
468.62,0.0485
469.09,0.0485
469.55,0.0484
470.02,0.0484
470.48,0.0484
470.95,0.0484
471.41,0.0484
471.88,0.0483
472.34,0.0482
472.8,0.0483
473.27,0.0483
473.73,0.0483
474.2,0.0484
474.66,0.0483
475.13,0.0482
475.59,0.0482
476.06,0.0483
476.52,0.0484
476.99,0.0482
477.45,0.0484
477.92,0.0483
478.38,0.0483
478.85,0.0483
479.31,0.0482
479.77,0.0482
480.24,0.0483
480.7,0.0481
481.17,0.0483
481.63,0.0482
482.1,0.0482
482.56,0.0482
483.02,0.0482
483.49,0.0481
483.95,0.0482
484.42,0.0481
484.88,0.0482
485.34,0.0482
485.81,0.0481
486.27,0.0482
486.74,0.0481
487.2,0.0482
487.66,0.0481
488.13,0.0481
488.59,0.0481
489.06,0.0482
489.52,0.0481
489.98,0.048
490.45,0.048
490.91,0.048
491.38,0.048
491.84,0.048
492.3,0.0479
492.77,0.048
493.23,0.048
493.69,0.0479
494.16,0.048
494.62,0.0479
495.08,0.048
495.55,0.0479
496.01,0.0478
496.47,0.0479
496.94,0.0478
497.4,0.0478
497.86,0.0478
498.33,0.0477
498.79,0.0479
499.25,0.0478
499.72,0.0479
500.18,0.0478
500.64,0.0478
501.11,0.0478
501.57,0.0477
502.03,0.0477
502.5,0.0477
502.96,0.0476
503.42,0.0477
503.88,0.0476
504.35,0.0477
504.81,0.0476
505.27,0.0476
505.74,0.0476
506.2,0.0475
506.66,0.0476
507.12,0.0476
507.59,0.0475
508.05,0.0475
508.51,0.0475
508.97,0.0475
509.44,0.0475
509.9,0.0475
510.36,0.0474
510.82,0.0474
511.29,0.0474
511.75,0.0474
512.21,0.0473
512.67,0.0474
513.14,0.0474
513.6,0.0475
514.06,0.0474
514.52,0.0474
514.99,0.0474
515.45,0.0473
515.91,0.0474
516.37,0.0474
516.83,0.0474
517.3,0.0474
517.76,0.0473
518.22,0.0473
518.68,0.0472
519.14,0.0472
519.61,0.0473
520.07,0.0473
520.53,0.0473
520.99,0.0472
521.45,0.0473
521.91,0.0473
522.38,0.0472
522.84,0.0473
523.3,0.0472
523.76,0.0472
524.22,0.0473
524.68,0.0473
525.15,0.0473
525.61,0.0473
526.07,0.0473
526.53,0.0474
526.99,0.0473
527.45,0.0473
527.92,0.0473
528.38,0.0474
528.84,0.0473
529.3,0.0473
529.76,0.0473
530.22,0.0473
530.68,0.0473
531.14,0.0473
531.61,0.0473
532.07,0.0473
532.53,0.0473
532.99,0.0472
533.45,0.0473
533.91,0.0472
534.37,0.0472
534.83,0.0473
535.29,0.0472
535.75,0.0472
536.22,0.0473
536.68,0.0472
537.14,0.0473
537.6,0.0472
538.06,0.0472
538.52,0.0471
538.98,0.0472
539.44,0.0472
539.9,0.0472
540.36,0.0473
540.82,0.0472
541.28,0.0472
541.74,0.0473
542.2,0.0473
542.67,0.0472
543.13,0.0473
543.59,0.0473
544.05,0.0473
544.51,0.0472
544.97,0.0473
545.43,0.0473
545.89,0.0473
546.35,0.0473
546.81,0.0473
547.27,0.0473
547.73,0.0473
548.19,0.0474
548.65,0.0473
549.11,0.0473
549.57,0.0474
550.03,0.0473
550.49,0.0474
550.95,0.0473
551.41,0.0474
551.87,0.0474
552.33,0.0474
552.79,0.0474
553.25,0.0474
553.71,0.0474
554.17,0.0474
554.63,0.0475
555.09,0.0474
555.55,0.0475
556.01,0.0475
556.47,0.0475
556.93,0.0475
557.39,0.0476
557.85,0.0476
558.3,0.0476
558.76,0.0476
559.22,0.0476
559.68,0.0476
560.14,0.0476
560.6,0.0476
561.06,0.0476
561.52,0.0477
561.98,0.0477
562.44,0.0477
562.9,0.0477
563.36,0.0477
563.82,0.0478
564.28,0.0478
564.74,0.0478
565.19,0.0478
565.65,0.0479
566.11,0.0479
566.57,0.0478
567.03,0.0479
567.49,0.0479
567.95,0.0479
568.41,0.0479
568.87,0.048
569.32,0.048
569.78,0.048
570.24,0.048
570.7,0.0481
571.16,0.048
571.62,0.0481
572.08,0.0481
572.54,0.0481
572.99,0.0481
573.45,0.0482
573.91,0.0482
574.37,0.0482
574.83,0.0483
575.29,0.0483
575.75,0.0483
576.2,0.0483
576.66,0.0484
577.12,0.0485
577.58,0.0485
578.04,0.0485
578.5,0.0485
578.95,0.0486
579.41,0.0486
579.87,0.0486
580.33,0.0486
580.79,0.0486
581.24,0.0487
581.7,0.0488
582.16,0.0487
582.62,0.0487
583.08,0.0488
583.53,0.0489
583.99,0.0488
584.45,0.0489
584.91,0.0489
585.37,0.049
585.82,0.0489
586.28,0.049
586.74,0.049
587.2,0.0491
587.65,0.0491
588.11,0.0491
588.57,0.0492
589.03,0.0492
589.48,0.0492
589.94,0.0493
590.4,0.0493
590.86,0.0493
591.31,0.0493
591.77,0.0494
592.23,0.0494
592.69,0.0494
593.14,0.0495
593.6,0.0494
594.06,0.0495
594.52,0.0495
594.97,0.0495
595.43,0.0496
595.89,0.0495
596.34,0.0496
596.8,0.0496
597.26,0.0496
597.72,0.0496
598.17,0.0496
598.63,0.0496
599.09,0.0497
599.54,0.0497
600.0,0.0497
600.46,0.0498
600.91,0.0498
601.37,0.0498
601.83,0.0498
602.28,0.0498
602.74,0.0499
603.2,0.0499
603.66,0.0499
604.11,0.0499
604.57,0.05
605.03,0.05
605.48,0.0501
605.94,0.05
606.39,0.05
606.85,0.0501
607.31,0.0501
607.76,0.05
608.22,0.0501
608.68,0.0501
609.13,0.0501
609.59,0.0501
610.05,0.0501
610.5,0.0501
610.96,0.0501
611.41,0.0502
611.87,0.0502
612.33,0.0502
612.78,0.0502
613.24,0.0502
613.7,0.0502
614.15,0.0502
614.61,0.0502
615.06,0.0503
615.52,0.0503
615.97,0.0503
616.43,0.0503
616.89,0.0503
617.34,0.0503
617.8,0.0503
618.25,0.0504
618.71,0.0504
619.17,0.0504
619.62,0.0504
620.08,0.0504
620.53,0.0504
620.99,0.0504
621.44,0.0504
621.9,0.0504
622.35,0.0504
622.81,0.0505
623.27,0.0505
623.72,0.0504
624.18,0.0504
624.63,0.0505
625.09,0.0505
625.54,0.0505
626.0,0.0504
626.45,0.0505
626.91,0.0505
627.36,0.0506
627.82,0.0505
628.27,0.0505
628.73,0.0505
629.18,0.0505
629.64,0.0505
630.09,0.0505
630.55,0.0505
631.0,0.0505
631.46,0.0505
631.91,0.0506
632.37,0.0505
632.82,0.0506
633.28,0.0505
633.73,0.0505
634.19,0.0505
634.64,0.0506
635.1,0.0506
635.55,0.0505
636.01,0.0505
636.46,0.0506
636.92,0.0505
637.37,0.0505
637.83,0.0505
638.28,0.0506
638.73,0.0505
639.19,0.0505
639.64,0.0505
640.1,0.0505
640.55,0.0505
641.01,0.0506
641.46,0.0505
641.92,0.0505
642.37,0.0506
642.82,0.0505
643.28,0.0505
643.73,0.0506
644.19,0.0506
644.64,0.0506
645.09,0.0506
645.55,0.0506
646.0,0.0506
646.46,0.0506
646.91,0.0506
647.36,0.0506
647.82,0.0506
648.27,0.0506
648.73,0.0507
649.18,0.0507
649.63,0.0507
650.09,0.0507
650.54,0.0507
651.0,0.0507
651.45,0.0507
651.9,0.0507
652.36,0.0506
652.81,0.0507
653.26,0.0507
653.72,0.0507
654.17,0.0507
654.62,0.0506
655.08,0.0507
655.53,0.0507
655.98,0.0507
656.44,0.0507
656.89,0.0507
657.34,0.0507
657.8,0.0507
658.25,0.0507
658.7,0.0507
659.16,0.0507
659.61,0.0507
660.06,0.0507
660.52,0.0507
660.97,0.0506
661.42,0.0507
661.88,0.0507
662.33,0.0507
662.78,0.0507
663.24,0.0508
663.69,0.0507
664.14,0.0507
664.59,0.0507
665.05,0.0507
665.5,0.0507
665.95,0.0507
666.41,0.0507
666.86,0.0507
667.31,0.0507
667.76,0.0507
668.22,0.0507
668.67,0.0507
669.12,0.0506
669.57,0.0507
670.03,0.0507
670.48,0.0507
670.93,0.0507
671.38,0.0506
671.84,0.0506
672.29,0.0506
672.74,0.0506
673.19,0.0506
673.65,0.0506
674.1,0.0506
674.55,0.0506
675.0,0.0506
675.46,0.0506
675.91,0.0506
676.36,0.0506
676.81,0.0506
677.26,0.0506
677.72,0.0507
678.17,0.0507
678.62,0.0506
679.07,0.0507
679.52,0.0507
679.98,0.0507
680.43,0.0507
680.88,0.0507
681.33,0.0507
681.78,0.0506
682.24,0.0506
682.69,0.0506
683.14,0.0507
683.59,0.0507
684.04,0.0507
684.49,0.0506
684.95,0.0506
685.4,0.0506
685.85,0.0506
686.3,0.0506
686.75,0.0506
687.2,0.0506
687.65,0.0506
688.11,0.0506
688.56,0.0506
689.01,0.0506
689.46,0.0506
689.91,0.0505
690.36,0.0505
690.81,0.0505
691.27,0.0505
691.72,0.0505
692.17,0.0505
692.62,0.0505
693.07,0.0505
693.52,0.0505
693.97,0.0505
694.42,0.0505
694.87,0.0505
695.32,0.0505
695.78,0.0504
696.23,0.0504
696.68,0.0504
697.13,0.0505
697.58,0.0505
698.03,0.0504
698.48,0.0504
698.93,0.0504
699.38,0.0503
699.83,0.0504
700.28,0.0503
700.73,0.0504
701.19,0.0503
701.64,0.0503
702.09,0.0503
702.54,0.0503
702.99,0.0504
703.44,0.0503
703.89,0.0503
704.34,0.0503
704.79,0.0503
705.24,0.0503
705.69,0.0503
706.14,0.0503
706.59,0.0503
707.04,0.0503
707.49,0.0503
707.94,0.0503
708.39,0.0503
708.84,0.0503
709.29,0.0502
709.74,0.0502
710.19,0.0503
710.64,0.0502
711.09,0.0503
711.54,0.0502
711.99,0.0502
712.44,0.0503
712.89,0.0502
713.34,0.0502
713.79,0.0502
714.24,0.0502
714.69,0.0501
715.14,0.0502
715.59,0.0501
716.04,0.0501
716.49,0.0501
716.94,0.0501
717.39,0.0501
717.84,0.05
718.29,0.05
718.74,0.05
719.19,0.05
719.64,0.05
720.09,0.05
720.53,0.05
720.98,0.05
721.43,0.0499
721.88,0.0499
722.33,0.0499
722.78,0.0499
723.23,0.0498
723.68,0.0498
724.13,0.0498
724.58,0.0498
725.03,0.0497
725.48,0.0497
725.93,0.0497
726.37,0.0498
726.82,0.0497
727.27,0.0498
727.72,0.0497
728.17,0.0498
728.62,0.0497
729.07,0.0498
729.52,0.0497
729.97,0.0497
730.41,0.0497
730.86,0.0497
731.31,0.0497
731.76,0.0497
732.21,0.0497
732.66,0.0496
733.11,0.0497
733.56,0.0496
734.0,0.0496
734.45,0.0496
734.9,0.0495
735.35,0.0495
735.8,0.0495
736.25,0.0495
736.7,0.0496
737.14,0.0496
737.59,0.0495
738.04,0.0495
738.49,0.0494
738.94,0.0494
739.38,0.0494
739.83,0.0493
740.28,0.0493
740.73,0.0494
741.18,0.0493
741.63,0.0494
742.07,0.0493
742.52,0.0493
742.97,0.0492
743.42,0.0492
743.87,0.0492
744.31,0.0492
744.76,0.0492
745.21,0.0492
745.66,0.0492
746.11,0.0492
746.55,0.0491
747.0,0.0491
747.45,0.0491
747.9,0.049
748.34,0.049
748.79,0.049
749.24,0.0489
749.69,0.0489
750.13,0.049
750.58,0.0489
751.03,0.0489
751.48,0.0489
751.92,0.0489
752.37,0.0489
752.82,0.0489
753.27,0.0488
753.71,0.0488
754.16,0.0488
754.61,0.0488
755.06,0.0488
755.5,0.0488
755.95,0.0488
756.4,0.0487
756.84,0.0487
757.29,0.0487
757.74,0.0486
758.19,0.0486
758.63,0.0486
759.08,0.0486
759.53,0.0485
759.97,0.0486
760.42,0.0485
760.87,0.0484
761.31,0.0484
761.76,0.0485
762.21,0.0485
762.65,0.0484
763.1,0.0484
763.55,0.0484
764.0,0.0483
764.44,0.0483
764.89,0.0483
765.34,0.0483
765.78,0.0482
766.23,0.0483
766.67,0.0482
767.12,0.0483
767.57,0.0482
768.01,0.0482
768.46,0.0483
768.91,0.0482
769.35,0.0482
769.8,0.0482
770.25,0.0481
770.69,0.0482
771.14,0.0482
771.58,0.0481
772.03,0.0481
772.48,0.0481
772.92,0.0481
773.37,0.0481
773.82,0.048
774.26,0.0481
774.71,0.0481
775.15,0.0481
775.6,0.048
776.05,0.048
776.49,0.0479
776.94,0.0479
777.38,0.0479
777.83,0.0479
778.28,0.0479
778.72,0.0479
779.17,0.0478
779.61,0.0477
780.06,0.0477
780.5,0.0477
780.95,0.0477
781.4,0.0476
781.84,0.0476
782.29,0.0476
782.73,0.0476
783.18,0.0476
783.62,0.0475
784.07,0.0475
784.51,0.0474
784.96,0.0474
785.4,0.0474
785.85,0.0473
786.3,0.0473
786.74,0.0473
787.19,0.0473
787.63,0.0473
788.08,0.0473
788.52,0.0472
788.97,0.0472
789.41,0.0472
789.86,0.0471
790.3,0.0472
790.75,0.0471
791.19,0.0471
791.64,0.0471
792.08,0.047
792.53,0.047
792.97,0.047
793.42,0.0469
793.86,0.0469
794.31,0.0469
794.75,0.0469
795.2,0.0468
795.64,0.0467
796.09,0.0468
796.53,0.0467
796.97,0.0467
797.42,0.0466
797.86,0.0467
798.31,0.0467
798.75,0.0466
799.2,0.0466
799.64,0.0466
800.09,0.0465
800.53,0.0465
800.98,0.0465
801.42,0.0465
801.86,0.0465
802.31,0.0464
802.75,0.0464
803.2,0.0464
803.64,0.0463
804.09,0.0463
804.53,0.0463
804.97,0.0462
805.42,0.0462
805.86,0.0462
806.31,0.0462
806.75,0.0461
807.19,0.0462
807.64,0.0462
808.08,0.0462
808.53,0.0461
808.97,0.0461
809.41,0.0461
809.86,0.0461
810.3,0.046
810.75,0.046
811.19,0.0459
811.63,0.0459
812.08,0.0458
