Database of Origin,University of Winnipeg Spectrophotometer Facility
Sample Description,16.12. Meteorites - Ureilites 16.12.3. Pierre Hudon (JSC) samples (b) Nicolet FTIR spectra from RELAB
Other Information,bmraph018
Date Added,2018-07-23 23:49:07.382770

Data ID,RLA_MET2_9_8        
Sample ID,NWA1500
Mineral Name,ureilite
Grain Size,<75 um
Viewing Geometry,30/30
Resolution,0.8-121 nm

Wavelength
2000.5,0.05321
2001.3,0.0532
2002.1,0.05319
2002.8,0.0534
2003.6,0.05349
2004.4,0.05345
2005.2,0.0538
2005.9,0.05396
2006.7,0.0538
2007.5,0.05359
2008.3,0.05348
2009.0,0.0537
2009.8,0.05408
2010.6,0.05402
2011.4,0.0539
2012.2,0.05405
2012.9,0.05445
2013.7,0.05443
2014.5,0.05422
2015.3,0.05446
2016.1,0.05447
2016.8,0.05446
2017.6,0.05451
2018.4,0.05469
2019.2,0.05481
2020.0,0.05478
2020.8,0.05522
2021.6,0.05521
2022.4,0.05489
2023.2,0.05474
2023.9,0.05486
2024.7,0.05497
2025.5,0.05509
2026.3,0.05535
2027.1,0.05542
2027.9,0.05542
2028.7,0.05551
2029.5,0.05547
2030.3,0.05553
2031.1,0.05542
2031.9,0.05558
2032.7,0.05588
2033.5,0.05604
2034.3,0.05614
2035.1,0.05629
2035.9,0.05627
2036.7,0.05642
2037.5,0.05645
2038.3,0.05626
2039.1,0.05626
2039.9,0.05625
2040.7,0.0562
2041.5,0.0564
2042.3,0.05643
2043.1,0.05655
2043.9,0.05675
2044.7,0.0569
2045.5,0.05661
2046.3,0.05642
2047.1,0.05659
2047.9,0.05684
2048.7,0.05712
2049.5,0.05721
2050.4,0.05703
2051.2,0.0571
2052.0,0.05707
2052.8,0.05709
2053.6,0.05714
2054.4,0.05729
2055.2,0.0575
2056.0,0.05738
2056.9,0.05705
2057.7,0.05722
2058.5,0.05757
2059.3,0.05772
2060.1,0.05762
2060.9,0.0578
2061.8,0.05784
2062.6,0.05793
2063.4,0.05807
2064.2,0.05815
2065.1,0.05824
2065.9,0.05817
2066.7,0.05792
2067.5,0.05783
2068.3,0.05783
2069.2,0.05806
2070.0,0.05807
2070.8,0.05813
2071.6,0.0581
2072.5,0.05839
2073.3,0.05858
2074.1,0.05866
2075.0,0.05872
2075.8,0.05892
2076.6,0.05884
2077.5,0.05897
2078.3,0.05893
2079.1,0.05888
2080.0,0.05899
2080.8,0.05903
2081.6,0.05909
2082.5,0.05914
2083.3,0.05925
2084.1,0.05929
2085.0,0.05945
2085.8,0.05952
2086.7,0.05937
2087.5,0.05954
2088.3,0.0595
2089.2,0.05935
2090.0,0.05934
2090.9,0.05948
2091.7,0.0596
2092.6,0.05949
2093.4,0.05956
2094.2,0.05985
2095.1,0.05976
2095.9,0.05983
2096.8,0.06001
2097.6,0.06017
2098.5,0.06034
2099.3,0.06067
2100.2,0.06059
2101.0,0.06059
2101.9,0.0605
2102.7,0.0605
2103.6,0.06053
2104.4,0.06073
2105.3,0.06071
2106.1,0.06082
2107.0,0.06089
2107.9,0.06083
2108.7,0.06107
2109.6,0.06144
2110.4,0.06156
2111.3,0.06146
2112.2,0.06142
2113.0,0.06143
2113.9,0.0614
2114.7,0.0615
2115.6,0.06171
2116.5,0.06184
2117.3,0.06177
2118.2,0.06177
2119.1,0.0618
2119.9,0.06186
2120.8,0.06167
2121.7,0.0617
2122.5,0.06207
2123.4,0.06225
2124.3,0.06208
2125.1,0.06183
2126.0,0.06173
2126.9,0.06179
2127.8,0.06198
2128.6,0.06222
2129.5,0.06229
2130.4,0.06245
2131.3,0.06257
2132.1,0.06252
2133.0,0.06257
2133.9,0.06266
2134.8,0.06258
2135.6,0.06245
2136.5,0.06275
2137.4,0.06296
2138.3,0.06296
2139.2,0.06283
2140.1,0.06274
2140.9,0.06276
2141.8,0.06282
2142.7,0.06293
2143.6,0.06313
2144.5,0.06326
2145.4,0.06325
2146.3,0.06295
2147.1,0.06283
2148.0,0.06309
2148.9,0.0633
2149.8,0.06346
2150.7,0.06355
2151.6,0.0636
2152.5,0.06353
2153.4,0.06368
2154.3,0.06385
2155.2,0.06364
2156.1,0.06365
2157.0,0.06379
2157.9,0.06383
2158.8,0.06389
2159.7,0.06379
2160.6,0.06379
2161.5,0.06387
2162.4,0.06394
2163.3,0.06407
2164.2,0.064
2165.1,0.06394
2166.0,0.06402
2166.9,0.06408
2167.8,0.06427
2168.7,0.06434
2169.6,0.06442
2170.5,0.06428
2171.4,0.06426
2172.3,0.06456
2173.3,0.06489
2174.2,0.0648
2175.1,0.06477
2176.0,0.06482
2176.9,0.06481
2177.8,0.06462
2178.7,0.06472
2179.6,0.06502
2180.6,0.06496
2181.5,0.06492
2182.4,0.06511
2183.3,0.06509
2184.2,0.06509
2185.1,0.06515
2186.1,0.06524
2187.0,0.06534
2187.9,0.0655
2188.8,0.06554
2189.8,0.06551
2190.7,0.0655
2191.6,0.06558
2192.6,0.06563
2193.5,0.06568
2194.4,0.06565
2195.3,0.0657
2196.3,0.06556
2197.2,0.0655
2198.1,0.06588
2199.1,0.06615
2200.0,0.06604
2200.9,0.06582
2201.9,0.06573
2202.8,0.06601
2203.7,0.06631
2204.7,0.0664
2205.6,0.06615
2206.5,0.06598
2207.5,0.06612
2208.4,0.06637
2209.4,0.06642
2210.3,0.06647
2211.3,0.06648
2212.2,0.06645
2213.1,0.06642
2214.1,0.06648
2215.0,0.06663
2216.0,0.06676
2216.9,0.0667
2217.9,0.06678
2218.8,0.0669
2219.8,0.06698
2220.7,0.0669
2221.7,0.06697
2222.6,0.06709
2223.6,0.06716
2224.5,0.0673
2225.5,0.06723
2226.4,0.06713
2227.4,0.06722
2228.4,0.06732
2229.3,0.06741
2230.3,0.06731
2231.2,0.06744
2232.2,0.06762
2233.1,0.06754
2234.1,0.06747
2235.1,0.06743
2236.0,0.06739
2237.0,0.06752
2238.0,0.06773
2238.9,0.06788
2239.9,0.06798
2240.9,0.06797
2241.8,0.06791
2242.8,0.06779
2243.8,0.06803
2244.8,0.06817
2245.7,0.06816
2246.7,0.06822
2247.7,0.06835
2248.6,0.06843
2249.6,0.06829
2250.6,0.0682
2251.6,0.06833
2252.6,0.06845
2253.5,0.06842
2254.5,0.06851
2255.5,0.06876
2256.5,0.06884
2257.5,0.06873
2258.4,0.06861
2259.4,0.0687
2260.4,0.0689
2261.4,0.06894
2262.4,0.06884
2263.4,0.06902
2264.4,0.06912
2265.4,0.06907
2266.3,0.06898
2267.3,0.06893
2268.3,0.06904
2269.3,0.06925
2270.3,0.06938
2271.3,0.06942
2272.3,0.06948
2273.3,0.06932
2274.3,0.06932
2275.3,0.0695
2276.3,0.06947
2277.3,0.06938
2278.3,0.06949
2279.3,0.06962
2280.3,0.06971
2281.3,0.06981
2282.3,0.06988
2283.3,0.06979
2284.3,0.06982
2285.3,0.06994
2286.3,0.07001
2287.3,0.0701
2288.4,0.07013
2289.4,0.07005
2290.4,0.07018
2291.4,0.07018
2292.4,0.07009
2293.4,0.07017
2294.4,0.07039
2295.4,0.07038
2296.5,0.07024
2297.5,0.07042
2298.5,0.0706
2299.5,0.0706
2300.5,0.07061
2301.6,0.07063
2302.6,0.07067
2303.6,0.07081
2304.6,0.07087
2305.6,0.07085
2306.7,0.0709
2307.7,0.07102
2308.7,0.07095
2309.8,0.07095
2310.8,0.07101
2311.8,0.07121
2312.9,0.07124
2313.9,0.0711
2314.9,0.0711
2315.9,0.07118
2317.0,0.0712
2318.0,0.07136
2319.1,0.07158
2320.1,0.07162
2321.1,0.07166
2322.2,0.07179
2323.2,0.07174
2324.3,0.07162
2325.3,0.07164
2326.3,0.07179
2327.4,0.07182
2328.4,0.07183
2329.5,0.07185
2330.5,0.07185
2331.6,0.07195
2332.6,0.07203
2333.7,0.07201
2334.7,0.07202
2335.8,0.07215
2336.8,0.0721
2337.9,0.07207
2338.9,0.07217
2340.0,0.07222
2341.0,0.07216
2342.1,0.07222
2343.2,0.07241
2344.2,0.07248
2345.3,0.07247
2346.3,0.07254
2347.4,0.07256
2348.5,0.07267
2349.5,0.07274
2350.6,0.07275
2351.7,0.07287
2352.7,0.07293
2353.8,0.07285
2354.9,0.07288
2355.9,0.07293
2357.0,0.07285
2358.1,0.07292
2359.1,0.073
2360.2,0.07305
2361.3,0.07314
2362.4,0.07312
2363.4,0.07316
2364.5,0.07324
2365.6,0.07317
2366.7,0.07309
2367.8,0.07341
2368.9,0.07355
2369.9,0.07337
2371.0,0.07333
2372.1,0.07345
2373.2,0.0735
2374.3,0.07357
2375.4,0.07361
2376.4,0.07354
2377.5,0.07354
2378.6,0.07367
2379.7,0.07374
2380.8,0.07372
2381.9,0.07382
2383.0,0.07388
2384.1,0.0739
2385.2,0.07397
2386.3,0.07404
2387.4,0.07409
2388.5,0.07422
2389.6,0.07419
2390.7,0.07413
2391.8,0.07424
2392.9,0.0743
2394.0,0.07431
2395.1,0.0743
2396.2,0.07437
2397.3,0.07446
2398.4,0.07453
2399.6,0.07463
2400.7,0.0746
2401.8,0.07449
2402.9,0.07465
2404.0,0.07476
2405.1,0.07483
2406.2,0.07478
2407.4,0.07479
2408.5,0.07495
2409.6,0.07498
2410.7,0.07491
2411.8,0.07496
2412.9,0.07501
2414.1,0.07506
2415.2,0.07521
2416.3,0.0752
2417.4,0.07512
2418.6,0.0753
2419.7,0.07536
2420.8,0.0752
2422.0,0.0753
2423.1,0.07546
2424.2,0.07546
2425.4,0.07549
2426.5,0.07551
2427.6,0.07555
2428.8,0.07557
2429.9,0.0756
2431.1,0.07573
2432.2,0.07579
2433.3,0.07587
2434.5,0.07589
2435.6,0.07584
2436.8,0.07585
2437.9,0.07589
2439.1,0.076
2440.2,0.07608
2441.4,0.07607
2442.5,0.07608
2443.6,0.07613
2444.8,0.0762
2446.0,0.07626
2447.1,0.07633
2448.3,0.07634
2449.4,0.07636
2450.6,0.07649
2451.7,0.07663
2452.9,0.07654
2454.1,0.07642
2455.2,0.07641
2456.4,0.07654
2457.6,0.07668
2458.7,0.0767
2459.9,0.07677
2461.1,0.07682
2462.2,0.0769
2463.4,0.07691
2464.6,0.0769
2465.7,0.07692
2466.9,0.07704
2468.1,0.07698
2469.3,0.07689
2470.4,0.07701
2471.6,0.07716
2472.8,0.0772
2474.0,0.07712
2475.1,0.07726
2476.3,0.07735
2477.5,0.07732
2478.7,0.07738
2479.9,0.07734
2481.1,0.07733
2482.3,0.07745
2483.4,0.07758
2484.6,0.07759
2485.8,0.07756
2487.0,0.07757
2488.2,0.07759
2489.4,0.07763
2490.6,0.07768
2491.8,0.0778
2493.0,0.07786
2494.2,0.07797
2495.4,0.07796
2496.6,0.07791
2497.8,0.07801
2499.0,0.0781
2500.2,0.07809
2501.4,0.07805
2502.6,0.07815
2503.8,0.07817
2505.0,0.07811
2506.3,0.07816
2507.5,0.07815
2508.7,0.07827
2509.9,0.07837
2511.1,0.07844
2512.3,0.07844
2513.5,0.07843
2514.8,0.07855
2516.0,0.07851
2517.2,0.07852
2518.4,0.07871
2519.6,0.07876
2520.9,0.07875
2522.1,0.07876
2523.3,0.07886
2524.6,0.0789
2525.8,0.07888
2527.0,0.07889
2528.3,0.07897
2529.5,0.07899
2530.7,0.07904
2531.9,0.07915
2533.2,0.07914
2534.4,0.07904
2535.7,0.07909
2536.9,0.07915
2538.1,0.07906
2539.4,0.07921
2540.6,0.07942
2541.9,0.07944
2543.1,0.07939
2544.4,0.07933
2545.6,0.07943
2546.9,0.07954
2548.1,0.07963
2549.4,0.07957
2550.6,0.07953
2551.9,0.0796
2553.1,0.07965
2554.4,0.07961
2555.7,0.07965
2556.9,0.07973
2558.2,0.07977
2559.4,0.07981
2560.7,0.07993
2562.0,0.07999
2563.2,0.07999
2564.5,0.07996
2565.8,0.08007
2567.1,0.08014
2568.3,0.08013
2569.6,0.0802
2570.9,0.08018
2572.1,0.08019
2573.4,0.08029
2574.7,0.0803
2576.0,0.08039
2577.3,0.08048
2578.5,0.08051
2579.8,0.08043
2581.1,0.08048
2582.4,0.08057
2583.7,0.08064
2585.0,0.08064
2586.3,0.08069
2587.5,0.08071
2588.8,0.08073
2590.1,0.08075
2591.4,0.0808
2592.7,0.08093
2594.0,0.0811
2595.3,0.0812
2596.6,0.08109
2597.9,0.08096
2599.2,0.08099
2600.5,0.08112
2601.8,0.08121
2603.1,0.08129
2604.4,0.08131
2605.8,0.08133
2607.1,0.08136
2608.4,0.08132
2609.7,0.08126
2611.0,0.08125
2612.3,0.08135
2613.6,0.08152
2614.9,0.08157
2616.3,0.08164
2617.6,0.08167
2618.9,0.08161
2620.2,0.08168
2621.6,0.08164
2622.9,0.08166
2624.2,0.0817
2625.5,0.0817
2626.9,0.08186
2628.2,0.0818
2629.5,0.08182
2630.9,0.08194
2632.2,0.08189
2633.5,0.08193
2634.9,0.08204
2636.2,0.08206
2637.6,0.08207
2638.9,0.08214
2640.2,0.08224
2641.6,0.08222
2642.9,0.08217
2644.3,0.0822
2645.6,0.08227
2647.0,0.08235
2648.3,0.08236
2649.7,0.08235
2651.0,0.08242
2652.4,0.08249
2653.8,0.08244
2655.1,0.08242
2656.5,0.08252
2657.8,0.08259
2659.2,0.08267
2660.6,0.08267
2661.9,0.08263
2663.3,0.08262
2664.7,0.0827
2666.0,0.08274
2667.4,0.08274
2668.8,0.08277
2670.1,0.08302
2671.5,0.08297
2672.9,0.08282
2674.3,0.08286
2675.7,0.08285
2677.0,0.08296
2678.4,0.08297
2679.8,0.08285
2681.2,0.0828
2682.6,0.08292
2684.0,0.08301
2685.4,0.08306
2686.8,0.08302
2688.1,0.08298
2689.5,0.08298
2690.9,0.08297
2692.3,0.08309
2693.7,0.08327
2695.1,0.08325
2696.5,0.08306
2697.9,0.08306
2699.3,0.08312
2700.8,0.08313
2702.1,0.08314
2703.6,0.08312
2705.0,0.08308
2706.4,0.083
2707.8,0.08303
2709.2,0.08308
2710.6,0.08303
2712.1,0.08299
2713.5,0.08292
2714.9,0.08291
2716.3,0.08292
2717.7,0.08301
2719.2,0.08309
2720.6,0.08311
2722.0,0.08295
2723.4,0.08289
2724.9,0.08286
2726.3,0.08272
2727.7,0.08264
2729.2,0.0826
2730.6,0.08252
2732.1,0.08253
2733.5,0.08251
2734.9,0.08239
2736.4,0.08228
2737.8,0.08226
2739.3,0.08228
2740.7,0.08215
2742.2,0.08189
2743.6,0.08174
2745.1,0.08168
2746.5,0.0815
2748.0,0.08131
2749.4,0.08113
2750.9,0.081
2752.4,0.0809
2753.8,0.08075
2755.3,0.08067
2756.7,0.08047
2758.2,0.08029
2759.7,0.08021
2761.1,0.08005
2762.6,0.07988
2764.1,0.07968
2765.6,0.07953
2767.0,0.07949
2768.5,0.0793
2770.0,0.07908
2771.5,0.079
2773.0,0.07889
2774.4,0.07878
2775.9,0.07867
2777.4,0.07853
2778.9,0.07837
2780.4,0.07832
2781.9,0.07822
2783.4,0.0781
2784.9,0.07798
2786.4,0.07796
2787.9,0.07797
2789.4,0.07779
2790.9,0.07773
2792.4,0.0777
2793.9,0.07762
2795.4,0.07758
2796.9,0.07756
2798.4,0.07747
2799.9,0.07742
2801.4,0.07748
2802.9,0.07753
2804.4,0.07743
2806.0,0.07728
2807.5,0.07721
2809.0,0.0772
2810.5,0.07722
2812.1,0.07724
2813.6,0.07727
2815.1,0.07726
2816.6,0.07721
2818.2,0.0772
2819.7,0.07719
2821.2,0.07718
2822.8,0.07713
2824.3,0.0771
2825.9,0.07716
2827.4,0.07721
2828.9,0.07725
2830.5,0.07724
2832.0,0.07726
2833.6,0.07726
2835.1,0.07729
2836.7,0.0773
2838.2,0.07728
2839.8,0.0773
2841.3,0.07732
2842.9,0.07735
2844.4,0.07738
2846.0,0.07732
2847.6,0.07731
2849.1,0.07734
2850.7,0.07735
2852.3,0.07736
2853.8,0.0774
2855.4,0.07743
2857.0,0.07739
2858.6,0.07742
2860.1,0.07747
2861.7,0.07741
2863.3,0.07743
2864.9,0.07753
2866.5,0.07759
2868.1,0.07761
2869.6,0.07762
2871.2,0.07758
2872.8,0.07752
2874.4,0.07753
2876.0,0.07756
2877.6,0.07763
2879.2,0.07766
2880.8,0.07758
2882.4,0.07755
2884.0,0.07761
2885.6,0.07769
2887.2,0.07771
2888.8,0.07772
2890.4,0.07776
2892.0,0.0778
2893.6,0.07776
2895.3,0.07775
2896.9,0.07774
2898.5,0.07774
2900.1,0.07787
2901.8,0.0779
2903.4,0.07785
2905.0,0.07788
2906.6,0.0779
2908.3,0.0779
2909.9,0.07789
2911.5,0.07788
2913.2,0.0779
2914.8,0.07797
2916.4,0.078
2918.1,0.07808
2919.7,0.07825
2921.4,0.07828
2923.0,0.07822
2924.7,0.07818
2926.3,0.07825
2928.0,0.07832
2929.6,0.07836
2931.3,0.0784
2932.9,0.07838
2934.6,0.07845
2936.3,0.07847
2937.9,0.07848
2939.6,0.0785
2941.3,0.07848
2942.9,0.07848
2944.6,0.07852
2946.3,0.07848
2947.9,0.07852
2949.6,0.07865
2951.3,0.07871
2953.0,0.07874
2954.7,0.07876
2956.3,0.07878
2958.0,0.07881
2959.7,0.07884
2961.4,0.07892
2963.1,0.07893
2964.8,0.07896
2966.5,0.07895
2968.2,0.07894
2969.9,0.07898
2971.6,0.07901
2973.3,0.07904
2975.0,0.0791
2976.7,0.07919
2978.4,0.07924
2980.1,0.07931
2981.9,0.07936
2983.6,0.07934
2985.3,0.07936
2987.0,0.07944
2988.7,0.07951
2990.4,0.0795
2992.2,0.07948
2993.9,0.0795
2995.6,0.07959
2997.4,0.07967
2999.1,0.07971
3000.8,0.07982
3002.6,0.07985
3004.3,0.07985
3006.1,0.07987
3007.8,0.07993
3009.5,0.07999
3011.3,0.08002
3013.0,0.08012
3014.8,0.08021
3016.5,0.08022
3018.3,0.08023
3020.1,0.08023
3021.8,0.08028
3023.6,0.0803
3025.3,0.08033
3027.1,0.08039
3028.9,0.08045
3030.6,0.08047
3032.4,0.0805
3034.2,0.08059
3036.0,0.08059
3037.7,0.08062
3039.5,0.08076
3041.3,0.08079
3043.1,0.08076
3044.9,0.08086
3046.7,0.08095
3048.5,0.08095
3050.3,0.08097
3052.1,0.08103
3053.8,0.08107
3055.6,0.08101
3057.4,0.08101
3059.3,0.08112
3061.1,0.08122
3062.9,0.08126
3064.7,0.08126
3066.5,0.08133
3068.3,0.0814
3070.1,0.08142
3071.9,0.08145
3073.8,0.08149
3075.6,0.08153
3077.4,0.08159
3079.2,0.08166
3081.1,0.08165
3082.9,0.08164
3084.7,0.0817
3086.6,0.08174
3088.4,0.0818
3090.2,0.08188
3092.1,0.0819
3093.9,0.08194
3095.8,0.08197
3097.6,0.08197
3099.5,0.082
3101.3,0.08206
3103.2,0.08218
3105.1,0.08222
3106.9,0.08222
3108.8,0.08232
3110.6,0.08237
3112.5,0.08235
3114.4,0.08241
3116.2,0.0825
3118.1,0.08252
3120.0,0.0826
3121.9,0.08266
3123.8,0.08271
3125.6,0.08278
3127.5,0.08282
3129.4,0.08284
3131.3,0.08291
3133.2,0.08299
3135.1,0.08304
3137.0,0.08312
3138.9,0.08319
3140.8,0.08325
3142.7,0.08324
3144.6,0.08329
3146.5,0.08335
3148.4,0.08337
3150.3,0.08341
3152.2,0.08348
3154.1,0.08357
3156.1,0.08365
3158.0,0.08371
3159.9,0.08374
3161.8,0.08379
3163.8,0.08387
3165.7,0.08393
3167.6,0.084
3169.6,0.08403
3171.5,0.08403
3173.5,0.08407
3175.4,0.08417
3177.3,0.08426
3179.3,0.08433
3181.2,0.08437
3183.2,0.08439
3185.1,0.08448
3187.1,0.08457
3189.1,0.08463
3191.0,0.08469
3193.0,0.08474
3195.0,0.08485
3196.9,0.08491
3198.9,0.08495
3200.9,0.08497
3202.9,0.08498
3204.8,0.08501
3206.8,0.08509
3208.8,0.08514
3210.8,0.0852
3212.8,0.08529
3214.8,0.08539
3216.8,0.0854
3218.8,0.08548
3220.8,0.08557
3222.8,0.08561
3224.8,0.08566
3226.8,0.08578
3228.8,0.08582
3230.8,0.08582
3232.8,0.0859
3234.8,0.08597
3236.8,0.08599
3238.9,0.08603
3240.9,0.08608
3242.9,0.08612
3244.9,0.08618
3247.0,0.08621
3249.0,0.08631
3251.1,0.08643
3253.1,0.08651
3255.1,0.08658
3257.2,0.08666
3259.2,0.08669
3261.3,0.08671
3263.3,0.08679
3265.4,0.08688
3267.4,0.08692
3269.5,0.08697
3271.6,0.08704
3273.6,0.08708
3275.7,0.08707
3277.8,0.08712
3279.8,0.0872
3281.9,0.08727
3284.0,0.08732
3286.1,0.08738
3288.2,0.08746
3290.2,0.08757
3292.3,0.08762
3294.4,0.08764
3296.5,0.08767
3298.6,0.08774
3300.7,0.08779
3302.8,0.08784
3304.9,0.08792
3307.0,0.08798
3309.1,0.08804
3311.3,0.08807
3313.4,0.08808
3315.5,0.08808
3317.6,0.08811
3319.7,0.08821
3321.9,0.08831
3324.0,0.08839
3326.1,0.08844
3328.3,0.08849
3330.4,0.08853
3332.5,0.08857
3334.7,0.08863
3336.8,0.08872
3339.0,0.08878
3341.1,0.08877
3343.3,0.08883
3345.4,0.08899
3347.6,0.08907
3349.8,0.08906
3351.9,0.08909
3354.1,0.0891
3356.3,0.08912
3358.4,0.08918
3360.6,0.08924
3362.8,0.08929
3365.0,0.08935
3367.2,0.08936
3369.4,0.08936
3371.5,0.08935
3373.7,0.08935
3375.9,0.08936
3378.1,0.0894
3380.3,0.08943
3382.5,0.08948
3384.7,0.08953
3386.9,0.0896
3389.2,0.08968
3391.4,0.08968
3393.6,0.08967
3395.8,0.08968
3398.1,0.08968
3400.3,0.08964
3402.5,0.08959
3404.7,0.08959
3407.0,0.0896
3409.2,0.08961
3411.5,0.08962
3413.7,0.0896
3416.0,0.08961
3418.2,0.08975
3420.5,0.08993
3422.7,0.09008
3425.0,0.09019
3427.3,0.09028
3429.5,0.09038
3431.8,0.09046
3434.1,0.09055
3436.3,0.09066
3438.6,0.09076
3440.9,0.09081
3443.2,0.09089
3445.5,0.091
3447.8,0.09106
3450.1,0.09109
3452.4,0.09118
3454.6,0.09128
3456.9,0.09135
3459.3,0.09141
3461.6,0.09148
3463.9,0.09152
3466.2,0.09156
3468.5,0.09161
3470.8,0.09164
3473.2,0.09167
3475.5,0.09173
3477.8,0.09174
3480.1,0.09175
3482.5,0.0918
3484.8,0.09182
3487.2,0.09181
3489.5,0.09183
3491.9,0.09183
3494.2,0.09176
3496.6,0.09173
3498.9,0.09179
3501.3,0.09187
3503.7,0.092
3506.0,0.09215
3508.4,0.09228
3510.8,0.09238
3513.2,0.09247
3515.5,0.09259
3517.9,0.09269
3520.3,0.09274
3522.7,0.09278
3525.1,0.09283
3527.5,0.09286
3529.9,0.09291
3532.3,0.09298
3534.7,0.09305
3537.1,0.09312
3539.5,0.09317
3541.9,0.09323
3544.4,0.09327
3546.8,0.09327
3549.2,0.09331
3551.7,0.09337
3554.1,0.09343
3556.5,0.09347
3559.0,0.09348
3561.4,0.09352
3563.9,0.09359
3566.3,0.09366
3568.8,0.09369
3571.2,0.09372
3573.7,0.09376
3576.1,0.09383
3578.6,0.09387
3581.1,0.09391
3583.6,0.09394
3586.0,0.09397
3588.5,0.09406
3591.0,0.09415
3593.5,0.09419
3596.0,0.0942
3598.5,0.09423
3601.0,0.09426
3603.5,0.09424
3606.0,0.09428
3608.5,0.09434
3611.0,0.0944
3613.5,0.09444
3616.1,0.09449
3618.6,0.09454
3621.1,0.0946
3623.6,0.09464
3626.2,0.09465
3628.7,0.09468
3631.3,0.09476
3633.8,0.09481
3636.3,0.09481
3638.9,0.09481
3641.4,0.09484
3644.0,0.09488
3646.6,0.09496
3649.1,0.09501
3651.7,0.09503
3654.3,0.09505
3656.9,0.09507
3659.4,0.09512
3662.0,0.09521
3664.6,0.09526
3667.2,0.09526
3669.8,0.09531
3672.4,0.09536
3675.0,0.0954
3677.6,0.09543
3680.2,0.09545
3682.8,0.0955
3685.4,0.09555
3688.1,0.09559
3690.7,0.09559
3693.3,0.09562
3695.9,0.09565
3698.6,0.09568
3701.2,0.09571
3703.9,0.09576
3706.5,0.09581
3709.2,0.09585
3711.8,0.09589
3714.5,0.09594
3717.1,0.09596
3719.8,0.09597
3722.5,0.09601
3725.2,0.09601
3727.8,0.09602
3730.5,0.09609
3733.2,0.09613
3735.9,0.09617
3738.6,0.09622
3741.3,0.09623
3744.0,0.09626
3746.7,0.0963
3749.4,0.09631
3752.1,0.09633
3754.8,0.09636
3757.6,0.09641
3760.3,0.09648
3763.0,0.09654
3765.7,0.09655
3768.5,0.09656
3771.2,0.09661
3774.0,0.09665
3776.7,0.09665
3779.5,0.09666
3782.2,0.09671
3785.0,0.09672
3787.7,0.09673
3790.5,0.09679
3793.3,0.09684
3796.1,0.09685
3798.8,0.09686
3801.6,0.0969
3804.4,0.09693
3807.2,0.09699
3810.0,0.09702
3812.8,0.09703
