Database of Origin,University of Winnipeg Spectrophotometer Facility
Sample Description,Carbonaceous chondrites - RELAB archive 2. CM chondrites
Other Information,spun laser- irradiated
Date Added,2018-07-23 23:44:50.213149

Data ID,RLA_MET_33_43       
Sample ID,Mighei 4f
Mineral Name,CM Chondrite
Grain Size,<40 um
Viewing Geometry,30/0
Material Class,CM2

Wavelength
305.0,0.02107
310.0,0.02017
315.0,0.02058
320.0,0.02078
325.0,0.02182
330.0,0.02223
335.0,0.02348
340.0,0.02436
345.0,0.02489
350.0,0.0255
355.0,0.02591
360.0,0.02651
365.0,0.02685
370.0,0.02735
375.0,0.02763
380.0,0.02822
385.0,0.02861
390.0,0.0291
395.0,0.02984
400.0,0.02941
405.0,0.02984
410.0,0.03013
415.0,0.03048
420.0,0.03088
425.0,0.03138
430.0,0.03164
435.0,0.03206
440.0,0.03243
445.0,0.03268
450.0,0.03295
455.0,0.03319
460.0,0.03341
465.0,0.0337
470.0,0.03398
475.0,0.03425
480.0,0.0345
485.0,0.03478
490.0,0.03501
495.0,0.03523
500.0,0.03549
505.0,0.03577
510.0,0.03597
515.0,0.03624
520.0,0.03644
525.0,0.03663
530.0,0.0369
535.0,0.0371
540.0,0.03725
545.0,0.03747
550.0,0.03753
555.0,0.03769
560.0,0.03777
565.0,0.03787
570.0,0.0379
575.0,0.03797
580.0,0.03801
585.0,0.0381
590.0,0.0381
595.0,0.03814
600.0,0.03819
605.0,0.03823
610.0,0.03831
615.0,0.03844
620.0,0.03852
625.0,0.03857
630.0,0.0386
635.0,0.03863
640.0,0.03865
645.0,0.03868
650.0,0.03868
655.0,0.03868
660.0,0.03862
665.0,0.0386
670.0,0.03854
675.0,0.03853
680.0,0.03854
685.0,0.03852
690.0,0.03849
695.0,0.03846
700.0,0.03847
705.0,0.03849
710.0,0.03853
715.0,0.03856
720.0,0.03867
725.0,0.03875
730.0,0.03877
735.0,0.03879
740.0,0.03887
745.0,0.03889
750.0,0.03898
755.0,0.03899
760.0,0.03916
765.0,0.03921
770.0,0.03927
775.0,0.03937
780.0,0.03948
785.0,0.03965
790.0,0.03974
795.0,0.03986
800.0,0.04005
805.0,0.04019
810.0,0.04024
815.0,0.04043
820.0,0.04051
825.0,0.0406
830.0,0.04062
835.0,0.04064
840.0,0.04066
845.0,0.04061
850.0,0.04065
855.0,0.04056
860.0,0.04058
865.0,0.04061
870.0,0.04065
875.0,0.04066
880.0,0.04066
885.0,0.04071
890.0,0.04074
895.0,0.04082
900.0,0.04084
905.0,0.04095
910.0,0.04098
915.0,0.04104
920.0,0.04101
925.0,0.0411
930.0,0.04108
935.0,0.04116
940.0,0.04125
945.0,0.04135
950.0,0.04144
955.0,0.04155
960.0,0.0416
965.0,0.04162
970.0,0.04167
975.0,0.04166
980.0,0.04171
985.0,0.0418
990.0,0.0419
995.0,0.04201
1000.0,0.0421
1005.0,0.04215
1010.0,0.04218
1015.0,0.04223
1020.0,0.04226
1025.0,0.04232
1030.0,0.04238
1035.0,0.04243
1040.0,0.04247
1045.0,0.04247
1050.0,0.04245
1055.0,0.04248
1060.0,0.04246
1065.0,0.04245
1070.0,0.04248
1075.0,0.04252
1080.0,0.04255
1085.0,0.04269
1090.0,0.04281
1095.0,0.04285
1100.0,0.04289
1105.0,0.04293
1110.0,0.04295
1115.0,0.04299
1120.0,0.04304
1125.0,0.04315
1130.0,0.04324
1135.0,0.0433
1140.0,0.04335
1145.0,0.04342
1150.0,0.04349
1155.0,0.0435
1160.0,0.04358
1165.0,0.04364
1170.0,0.04369
1175.0,0.04376
1180.0,0.04384
1185.0,0.04391
1190.0,0.04395
1195.0,0.04403
1200.0,0.0441
1205.0,0.04421
1210.0,0.04426
1215.0,0.04439
1220.0,0.04448
1225.0,0.04452
1230.0,0.04456
1235.0,0.04468
1240.0,0.04476
1245.0,0.04486
1250.0,0.04494
1255.0,0.04502
1260.0,0.04508
1265.0,0.0451
1270.0,0.04515
1275.0,0.0452
1280.0,0.04526
1285.0,0.04531
1290.0,0.04539
1295.0,0.04548
1300.0,0.04555
1305.0,0.04561
1310.0,0.04567
1315.0,0.04575
1320.0,0.04581
1325.0,0.04588
1330.0,0.04596
1335.0,0.04605
1340.0,0.04615
1345.0,0.04622
1350.0,0.0463
1355.0,0.04637
1360.0,0.04644
1365.0,0.04649
1370.0,0.0466
1375.0,0.04667
1380.0,0.04679
1385.0,0.04692
1390.0,0.04708
1395.0,0.04712
1400.0,0.04716
1405.0,0.04719
1410.0,0.04723
1415.0,0.04725
1420.0,0.04732
1425.0,0.04746
1430.0,0.04758
1435.0,0.04769
1440.0,0.04781
1445.0,0.04791
1450.0,0.04799
1455.0,0.0481
1460.0,0.04817
1465.0,0.04826
1470.0,0.04835
1475.0,0.04845
1480.0,0.04851
1485.0,0.04864
1490.0,0.04872
1495.0,0.0488
1500.0,0.04887
1505.0,0.04897
1510.0,0.049
1515.0,0.04904
1520.0,0.04909
1525.0,0.04912
1530.0,0.04919
1535.0,0.04926
1540.0,0.04938
1545.0,0.04949
1550.0,0.04963
1555.0,0.0497
1560.0,0.04977
1565.0,0.04978
1570.0,0.04987
1575.0,0.04986
1580.0,0.04991
1585.0,0.05
1590.0,0.05007
1595.0,0.05011
1600.0,0.05021
1605.0,0.05027
1610.0,0.05032
1615.0,0.05037
1620.0,0.05045
1625.0,0.05051
1630.0,0.05059
1635.0,0.05067
1640.0,0.05074
1645.0,0.05083
1650.0,0.05094
1655.0,0.05096
1660.0,0.05102
1665.0,0.05114
1670.0,0.05114
1675.0,0.0511
1680.0,0.0512
1685.0,0.05123
1690.0,0.05124
1695.0,0.05135
1700.0,0.05152
1705.0,0.05162
1710.0,0.05167
1715.0,0.05178
1720.0,0.05183
1725.0,0.05192
1730.0,0.05196
1735.0,0.05201
1740.0,0.05204
1745.0,0.05205
1750.0,0.05217
1755.0,0.05223
1760.0,0.05224
1765.0,0.05225
1770.0,0.05226
1775.0,0.05226
1780.0,0.05231
1785.0,0.0524
1790.0,0.05248
1795.0,0.05257
1800.0,0.05267
1805.0,0.05274
1810.0,0.05279
1815.0,0.05285
1820.0,0.05289
1825.0,0.0529
1830.0,0.05291
1835.0,0.05297
1840.0,0.05301
1845.0,0.05307
1850.0,0.05313
1855.0,0.05319
1860.0,0.05321
1865.0,0.05318
1870.0,0.05323
1875.0,0.05324
1880.0,0.05327
1885.0,0.05327
1890.0,0.05334
1895.0,0.05337
1900.0,0.05334
1905.0,0.05332
1910.0,0.05336
1915.0,0.05342
1920.0,0.05339
1925.0,0.05349
1930.0,0.05362
1935.0,0.05368
1940.0,0.05372
1945.0,0.05378
1950.0,0.05387
1955.0,0.05387
1960.0,0.05392
1965.0,0.05398
1970.0,0.0541
1975.0,0.05418
1980.0,0.05432
1985.0,0.05439
1990.0,0.05443
1995.0,0.05447
2000.0,0.05447
2005.0,0.05452
2010.0,0.0546
2015.0,0.05464
2020.0,0.05469
2025.0,0.05472
2030.0,0.05468
2035.0,0.05467
2040.0,0.05475
2045.0,0.05478
2050.0,0.05483
2055.0,0.05491
2060.0,0.05498
2065.0,0.05507
2070.0,0.0551
2075.0,0.05512
2080.0,0.05517
2085.0,0.05523
2090.0,0.0552
2095.0,0.05529
2100.0,0.05528
2105.0,0.05537
2110.0,0.05541
2115.0,0.05548
2120.0,0.05551
2125.0,0.05563
2130.0,0.0556
2135.0,0.05564
2140.0,0.05568
2145.0,0.05573
2150.0,0.0558
2155.0,0.05592
2160.0,0.05598
2165.0,0.05606
2170.0,0.0561
2175.0,0.05618
2180.0,0.05621
2185.0,0.05634
2190.0,0.05633
2195.0,0.05639
2200.0,0.05636
2205.0,0.05638
2210.0,0.05639
2215.0,0.05644
2220.0,0.05653
2225.0,0.05658
2230.0,0.05659
2235.0,0.05662
2240.0,0.05663
2245.0,0.0566
2250.0,0.05668
2255.0,0.05671
2260.0,0.05668
2265.0,0.05673
2270.0,0.05672
2275.0,0.05671
2280.0,0.05672
2285.0,0.05676
2290.0,0.05676
2295.0,0.05684
2300.0,0.05688
2305.0,0.0569
2310.0,0.05697
2315.0,0.057
2320.0,0.05698
2325.0,0.05698
2330.0,0.05697
2335.0,0.05695
2340.0,0.05702
2345.0,0.05708
2350.0,0.05714
2355.0,0.05715
2360.0,0.05718
2365.0,0.05711
2370.0,0.05709
2375.0,0.05709
2380.0,0.05716
2385.0,0.05724
2390.0,0.05733
2395.0,0.05739
2400.0,0.05742
2405.0,0.05748
2410.0,0.05748
2415.0,0.05752
2420.0,0.05752
2425.0,0.05754
2430.0,0.05752
2435.0,0.05748
2440.0,0.05748
2445.0,0.05749
2450.0,0.05751
2455.0,0.05751
2460.0,0.05756
2465.0,0.05758
2470.0,0.05763
2475.0,0.05762
2480.0,0.05773
2485.0,0.05775
2490.0,0.05775
2495.0,0.05769
2500.0,0.0577
2505.0,0.05765
2510.0,0.05764
2515.0,0.05762
2520.0,0.05761
2525.0,0.05751
2530.0,0.05752
2535.0,0.05747
2540.0,0.05742
2545.0,0.05736
2550.0,0.05743
2555.0,0.05724
2560.0,0.05726
2565.0,0.05736
2570.0,0.05742
2575.0,0.05744
2580.0,0.05751
2585.0,0.05764
2590.0,0.05743
2595.0,0.05727
2600.0,0.05739
