Database of Origin,University of Winnipeg Spectrophotometer Facility
Sample Description,Carbonates and Oxolates - RELAB+Nicolet spectra Newly merged spectra (merged by RELAB)
Other Information,dry seived
Date Added,2018-08-06 20:49:03.061155

Data ID,RLA_CARB_1_43       
Sample ID,CRB213
Mineral Name,Thermonatr.
Locality,Keeler/ Inyo County/ California/ USA
Grain Size,<45 um
Viewing Geometry,30/0/30
Resolution,5/ 0.6-129 nm
Formula,Na2CO3*(H2O)
Composition,XRD shows only trona.

Wavelength
305.0,0.744838
310.0,0.75047
315.0,0.756407
320.0,0.764074
325.0,0.770078
330.0,0.773367
335.0,0.779073
340.0,0.784054
345.0,0.786468
350.0,0.79125
355.0,0.796082
360.0,0.80163
365.0,0.805396
370.0,0.80944
375.0,0.813421
380.0,0.817551
385.0,0.821551
390.0,0.824989
395.0,0.82816
400.0,0.830708
405.0,0.833055
410.0,0.829892
415.0,0.834407
420.0,0.835067
425.0,0.838816
430.0,0.840132
435.0,0.843396
440.0,0.843681
445.0,0.847558
450.0,0.847133
455.0,0.850981
460.0,0.850997
465.0,0.853826
470.0,0.854138
475.0,0.857013
480.0,0.857107
485.0,0.860187
490.0,0.860303
495.0,0.863543
500.0,0.863717
505.0,0.866169
510.0,0.867404
515.0,0.869428
520.0,0.87018
525.0,0.87229
530.0,0.872688
535.0,0.874492
540.0,0.87592
545.0,0.877407
550.0,0.878523
555.0,0.879928
560.0,0.880955
565.0,0.88257
570.0,0.883069
575.0,0.884293
580.0,0.88524
585.0,0.886144
590.0,0.887179
595.0,0.887523
600.0,0.887644
605.0,0.888714
610.0,0.888325
615.0,0.889296
620.0,0.8897
625.0,0.89024
630.0,0.892188
635.0,0.890823
640.0,0.891745
645.0,0.892125
650.0,0.89251
655.0,0.893483
660.0,0.893329
665.0,0.894599
670.0,0.895356
675.0,0.894294
680.0,0.895796
685.0,0.895205
690.0,0.895749
695.0,0.897126
700.0,0.897867
705.0,0.897583
710.0,0.896883
715.0,0.898413
720.0,0.897627
725.0,0.89864
730.0,0.899257
735.0,0.899797
740.0,0.89824
745.0,0.898182
750.0,0.900177
755.0,0.900644
760.0,0.901278
765.0,0.89936
770.0,0.899556
775.0,0.900035
780.0,0.900957
785.0,0.900881
790.0,0.900224
795.0,0.900032
800.0,0.900705
805.0,0.90106
810.0,0.901883
815.0,0.901579
820.0,0.900444
825.0,0.900893
830.0,0.900108
835.0,0.902036
840.0,0.901172
845.0,0.900823
850.0,0.902068
855.0,0.900233
860.0,0.90181
865.0,0.903104
870.0,0.90262
875.0,0.903597
880.0,0.904181
885.0,0.902808
890.0,0.90219
895.0,0.904738
900.0,0.903193
905.0,0.903754
910.0,0.904117
915.0,0.904744
920.0,0.903271
925.0,0.90396
930.0,0.904252
935.0,0.904769
940.0,0.905097
945.0,0.904571
950.0,0.905667
955.0,0.905356
960.0,0.905838
965.0,0.905167
970.0,0.905002
975.0,0.904752
980.0,0.90536
985.0,0.904912
990.0,0.904392
995.0,0.903177
1000.0,0.903625
1005.0,0.903463
1010.0,0.902843
1015.0,0.902883
1020.0,0.903885
1025.0,0.903469
1030.0,0.904459
1035.0,0.90465
1040.0,0.905201
1045.0,0.905133
1050.0,0.905972
1055.0,0.904664
1060.0,0.906038
1065.0,0.906232
1070.0,0.905739
1075.0,0.906419
1080.0,0.907031
1085.0,0.907024
1090.0,0.906455
1095.0,0.906773
1100.0,0.907123
1105.0,0.906694
1110.0,0.906996
1115.0,0.907008
1120.0,0.906782
1125.0,0.906543
1130.0,0.90577
1135.0,0.906233
1140.0,0.90591
1145.0,0.905398
1150.0,0.903959
1155.0,0.903059
1160.0,0.901772
1165.0,0.900727
1170.0,0.898804
1175.0,0.897279
1180.0,0.896585
1185.0,0.894844
1190.0,0.894544
1195.0,0.892686
1200.0,0.892425
1205.0,0.892226
1210.0,0.891895
1215.0,0.89252
1220.0,0.891088
1225.0,0.891575
1230.0,0.891769
1235.0,0.89225
1240.0,0.891495
1245.0,0.891588
1250.0,0.891143
1255.0,0.89237
1260.0,0.892797
1265.0,0.893196
1270.0,0.893262
1275.0,0.892985
1280.0,0.892025
1285.0,0.891479
1290.0,0.892095
1295.0,0.891106
1300.0,0.890076
1305.0,0.88909
1310.0,0.888107
1315.0,0.887359
1320.0,0.886303
1325.0,0.884753
1330.0,0.884394
1335.0,0.883639
1340.0,0.881892
1345.0,0.881305
1350.0,0.880115
1355.0,0.87985
1360.0,0.88016
1365.0,0.876892
1370.0,0.876252
1375.0,0.876206
1380.0,0.877213
1385.0,0.876867
1420.0,0.866337
1425.0,0.863374
1430.0,0.859541
1435.0,0.854318
1440.0,0.850049
1445.0,0.845141
1450.0,0.840367
1455.0,0.835309
1460.0,0.831063
1465.0,0.8266
1470.0,0.82231
1475.0,0.81801
1480.0,0.814157
1485.0,0.810405
1490.0,0.807385
1495.0,0.804199
1500.0,0.801719
1505.0,0.79964
1510.0,0.79814
1515.0,0.797159
1520.0,0.796283
1525.0,0.795777
1530.0,0.795655
1535.0,0.796862
1540.0,0.799784
1545.0,0.802868
1550.0,0.806488
1555.0,0.808907
1560.0,0.810924
1565.0,0.812628
1570.0,0.813444
1575.0,0.813731
1580.0,0.813836
1585.0,0.813236
1590.0,0.812647
1595.0,0.811608
1600.0,0.810498
1605.0,0.809169
1610.0,0.807547
1615.0,0.806035
1620.0,0.804195
1625.0,0.802429
1630.0,0.800672
1635.0,0.798478
1640.0,0.796634
1645.0,0.794309
1650.0,0.791746
1655.0,0.788975
1660.0,0.786089
1665.0,0.783826
1670.0,0.7806
1675.0,0.77739
1680.0,0.775041
1685.0,0.771732
1690.0,0.769674
1695.0,0.766785
1700.0,0.7643
1705.31,0.761657
1709.81,0.759326
1715.46,0.756293
1720.02,0.753518
1724.6,0.751408
1730.35,0.748107
1734.98,0.746228
1739.64,0.744362
1745.5,0.74294
1750.21,0.741891
1754.95,0.74163
1759.72,0.741207
1764.51,0.741092
1770.54,0.740556
1775.39,0.740239
1780.27,0.739594
1785.17,0.7389
1790.1,0.738275
1795.06,0.73741
1800.05,0.73699
1805.06,0.736135
1810.1,0.735337
1815.17,0.734663
1820.27,0.733864
1825.4,0.733176
1830.56,0.732022
1834.44,0.731198
1839.65,0.729865
1844.89,0.728021
1850.16,0.725802
1855.45,0.722962
1859.45,0.720513
1864.8,0.716682
1870.18,0.712106
1875.59,0.707151
1879.67,0.702966
1885.14,0.696079
1890.64,0.687656
1894.79,0.680073
1900.34,0.667767
1904.53,0.657071
1910.15,0.640974
1914.38,0.62756
1920.05,0.60784
1924.33,0.591456
1930.06,0.568357
1934.38,0.553525
1940.17,0.541453
1944.54,0.538064
1950.39,0.539842
1954.8,0.545184
1960.72,0.556259
1965.18,0.56457
1969.66,0.571398
1975.66,0.577472
1980.19,0.580303
1984.74,0.582267
1989.31,0.583485
1995.43,0.583699
2000.05,0.582893
2004.69,0.581218
2009.35,0.578711
2015.6,0.574629
2020.32,0.570684
2025.05,0.566359
2029.81,0.561828
2034.59,0.557983
2039.39,0.555534
2044.22,0.554606
2050.69,0.555284
2055.57,0.556747
2060.47,0.558702
2065.39,0.561024
2070.34,0.56347
2075.31,0.566447
2080.31,0.569282
2085.33,0.572045
2090.38,0.574946
2095.45,0.577738
2100.54,0.580404
2105.66,0.583097
2110.8,0.585479
2114.25,0.586893
2119.43,0.588759
2124.65,0.590152
2129.88,0.591329
2135.15,0.592274
2140.44,0.59303
2145.75,0.593603
2149.31,0.594087
2154.67,0.594943
2160.06,0.595559
2165.47,0.595911
2170.91,0.595894
2174.55,0.59582
2180.04,0.595406
2185.55,0.594469
2189.25,0.594022
2194.81,0.592985
2200.4,0.591751
2204.14,0.590999
2209.78,0.589495
2215.44,0.587329
2219.24,0.585697
2224.95,0.584706
2230.7,0.585945
2234.54,0.587608
2240.33,0.589691
2244.21,0.590298
2250.06,0.590307
2255.93,0.589427
2259.87,0.588584
2265.79,0.58716
2269.76,0.586054
2275.74,0.584115
2279.74,0.582733
2285.77,0.580561
2289.81,0.578911
2295.9,0.576267
2299.97,0.574376
2304.06,0.572462
2310.22,0.569629
2314.35,0.567657
2320.56,0.564871
2324.72,0.562862
2331.0,0.559815
2335.2,0.557767
2339.41,0.555694
2345.76,0.552167
2350.02,0.549707
2354.28,0.547123
2360.72,0.542949
2365.03,0.540291
2369.35,0.537165
2375.86,0.532097
2380.23,0.528085
2384.61,0.524049
2389.0,0.520381
2395.63,0.516359
2400.06,0.515051
2404.52,0.514293
2408.98,0.5138
2415.72,0.513009
2420.23,0.512805
2424.76,0.512379
2429.3,0.512084
2433.87,0.511379
2440.74,0.509882
2445.35,0.508839
2449.97,0.507856
2454.61,0.507432
2459.27,0.506882
2463.94,0.506474
2470.99,0.505547
2475.71,0.504735
2480.45,0.50409
2485.2,0.503237
2489.98,0.502495
2494.77,0.501537
2499.58,0.500367
2504.41,0.498725
2509.26,0.496979
2514.13,0.495284
2519.02,0.493493
2523.92,0.491404
2528.85,0.489298
2533.79,0.487079
2541.24,0.483538
2543.74,0.482268
2548.74,0.479751
2553.76,0.477424
2556.28,0.476227
2558.8,0.474906
2561.33,0.473623
2563.86,0.472253
2566.4,0.470928
2568.95,0.469809
2571.5,0.468577
2574.05,0.467162
2576.61,0.465824
2579.17,0.464399
2581.74,0.463006
2584.31,0.461526
2586.89,0.459876
2589.48,0.458428
2592.07,0.457053
2594.66,0.455393
2597.26,0.453699
2599.87,0.452281
2602.48,0.450734
2605.09,0.448904
2607.71,0.4471
2610.34,0.445525
2612.97,0.443891
2615.61,0.442008
2618.25,0.440183
2620.9,0.43824
2623.55,0.436348
2626.21,0.434583
2628.87,0.432586
2631.54,0.430509
2634.22,0.428653
2636.89,0.426737
2639.58,0.42481
2642.27,0.422773
2644.97,0.420529
2647.67,0.418234
2650.38,0.416144
2653.09,0.413966
2655.81,0.411597
2658.53,0.409275
2661.26,0.406737
2664.0,0.404037
2666.74,0.401293
2669.48,0.398223
2672.23,0.395145
2674.99,0.392174
2677.76,0.389232
2680.52,0.3859
2683.3,0.382564
2686.08,0.379243
2688.87,0.37582
2691.66,0.372223
2694.46,0.368554
2697.26,0.364357
2700.07,0.359704
2702.89,0.354644
2705.71,0.349128
2708.53,0.343021
2711.37,0.336138
2714.21,0.32809
2717.05,0.319706
2719.9,0.311539
2722.76,0.302903
2725.62,0.293772
2728.49,0.284255
2731.37,0.274952
2734.25,0.265796
2737.14,0.256446
2740.03,0.247215
2742.93,0.237812
2745.83,0.228177
2748.75,0.219178
2751.66,0.210532
2754.59,0.201955
2757.52,0.19353
2760.46,0.185128
2763.4,0.177603
2766.35,0.170077
2769.3,0.162669
2772.26,0.155485
2775.23,0.148379
2778.21,0.141551
2781.19,0.135145
2784.18,0.129046
2787.17,0.12318
2790.17,0.117236
2793.18,0.111586
2796.19,0.106231
2799.21,0.101169
2802.24,0.096618
2805.27,0.092272
2808.31,0.087946
2811.35,0.083913
2814.41,0.080196
2817.46,0.076891
2820.53,0.073888
2823.6,0.07103
2826.68,0.068594
2829.77,0.066361
2832.86,0.064274
2835.96,0.062421
2839.07,0.06088
2842.18,0.059415
2845.3,0.058002
2848.43,0.056784
2851.56,0.055735
2854.7,0.054705
2857.85,0.054065
2861.0,0.053508
2864.16,0.052789
2867.33,0.052136
2870.51,0.051448
2873.69,0.050838
2876.88,0.050481
2880.07,0.050084
2883.28,0.049958
2886.49,0.049973
2889.71,0.050028
2892.93,0.050282
2896.17,0.050887
2899.4,0.051306
2902.65,0.052066
2905.91,0.053096
2909.17,0.054118
2912.44,0.055233
2915.71,0.056597
2918.99,0.058156
2922.29,0.059755
2925.58,0.061249
2928.89,0.062864
2932.2,0.064412
2935.52,0.065648
2938.85,0.066526
2942.19,0.067364
2945.53,0.067844
2948.88,0.068223
2952.24,0.068374
2955.61,0.068425
2958.98,0.068598
2962.36,0.068765
2965.75,0.068782
2969.15,0.068722
2972.55,0.068741
2975.97,0.06894
2979.39,0.06899
2986.25,0.069456
2989.7,0.069742
2993.15,0.07015
2996.61,0.070418
3000.08,0.070377
3003.55,0.070486
3007.04,0.070659
3010.53,0.0707
3014.03,0.070688
3017.54,0.070754
3021.06,0.070595
3024.58,0.070564
3028.12,0.070393
3031.66,0.070185
3035.21,0.069793
3038.77,0.069373
3042.33,0.069
3045.91,0.068633
3049.49,0.068376
3053.08,0.068079
3056.68,0.06764
3060.29,0.067197
3063.91,0.066771
3067.54,0.066258
3071.17,0.065903
3074.81,0.065677
3078.47,0.065347
3082.13,0.065083
3085.79,0.064752
3089.47,0.064482
3093.16,0.06435
3096.85,0.064057
3100.56,0.063785
3104.27,0.063435
3107.99,0.063145
3111.73,0.063091
3115.47,0.062943
3119.21,0.062976
3122.97,0.062881
3126.74,0.062504
3130.52,0.062312
3134.3,0.062582
3138.1,0.062407
3141.9,0.062086
3145.71,0.06197
3149.54,0.061991
3153.37,0.06184
3157.21,0.061729
3161.06,0.061632
3164.92,0.061626
3168.79,0.061519
3172.67,0.061558
3176.55,0.061494
3180.45,0.061198
3184.36,0.060835
3188.27,0.060748
3192.2,0.060615
3196.14,0.06034
3200.08,0.060172
3204.04,0.060145
3208.0,0.059809
3211.98,0.059452
3215.96,0.059277
3219.96,0.059094
3223.96,0.058799
3227.98,0.058554
3232.0,0.058249
3236.04,0.058043
3240.08,0.057783
3244.14,0.057588
3248.2,0.057318
3252.28,0.057029
3256.37,0.056939
3260.46,0.057064
3264.57,0.057032
3268.69,0.057023
3272.81,0.057013
3276.95,0.057157
3281.1,0.057376
3285.26,0.057578
3289.43,0.057792
3293.61,0.058193
3297.8,0.058579
3302.0,0.058995
3306.21,0.059409
3310.43,0.060011
3314.66,0.060592
3318.91,0.061288
3323.16,0.062073
3327.43,0.06278
3331.71,0.063365
3335.99,0.064401
3340.29,0.065244
3344.6,0.065967
3348.92,0.066835
3353.26,0.06771
3357.6,0.068772
3361.96,0.069666
3366.32,0.07035
3370.7,0.071162
3375.09,0.072046
3379.49,0.072888
3383.9,0.07383
3388.32,0.074881
3392.76,0.075791
3397.21,0.076846
3401.66,0.077887
3406.13,0.07896
3410.61,0.080098
3415.11,0.081247
3419.61,0.082502
3424.13,0.083753
3428.66,0.08477
3433.2,0.086033
3437.76,0.087443
3442.32,0.088819
3446.9,0.090107
3451.49,0.091526
3456.09,0.092977
3460.7,0.094335
3465.33,0.095808
3469.97,0.097407
3474.62,0.09921
3479.29,0.100809
3483.96,0.102597
3488.65,0.105088
3493.35,0.107037
3498.07,0.108943
3502.79,0.111766
3507.53,0.11479
3512.29,0.117386
3517.05,0.119677
3521.83,0.122379
3526.62,0.125852
3531.43,0.128731
3536.24,0.132106
3541.08,0.135512
3543.5,0.13711
3545.92,0.138293
3548.35,0.139385
3550.78,0.140154
3553.21,0.140848
3555.65,0.141654
3558.09,0.142197
3560.53,0.142995
3562.98,0.143923
3565.43,0.144216
3567.88,0.144585
3570.34,0.145134
3572.8,0.145491
3575.27,0.145837
3577.73,0.146662
3580.2,0.147082
3582.68,0.147557
3585.16,0.147998
3587.64,0.148188
3590.12,0.148551
3592.61,0.149236
3595.1,0.149828
3597.6,0.150407
3600.09,0.150946
3602.6,0.151367
3605.1,0.151597
3607.61,0.151941
3610.12,0.152522
3612.64,0.152743
3615.16,0.152742
3617.68,0.153101
3620.21,0.153067
3622.74,0.153063
3625.27,0.153394
3627.81,0.153749
3630.35,0.153997
3632.89,0.153904
3635.44,0.153656
3637.99,0.153934
3640.54,0.154239
3643.1,0.154414
3645.66,0.15445
3648.23,0.154486
3650.8,0.154394
3653.37,0.154377
3655.95,0.154146
3658.53,0.153715
3661.11,0.153736
3663.7,0.154207
3666.29,0.154266
3668.89,0.153938
3671.48,0.153986
3674.09,0.154126
3676.69,0.153819
3679.3,0.153408
3681.91,0.153033
3684.53,0.15272
3687.15,0.15286
3689.78,0.152817
3692.4,0.152547
3695.04,0.152137
3697.67,0.151783
3700.31,0.151583
3702.95,0.151415
3705.6,0.151175
3708.25,0.150909
3710.91,0.150531
3713.56,0.150182
3716.23,0.150002
3718.89,0.149834
3721.56,0.149838
3724.23,0.149544
3726.91,0.149259
3729.59,0.14916
3732.28,0.148891
3734.97,0.148693
3737.66,0.148562
3740.36,0.148376
3743.06,0.14782
3745.76,0.147512
3748.47,0.147617
3751.18,0.147352
3753.9,0.146849
3756.62,0.146237
3759.34,0.146051
3762.07,0.146082
3764.8,0.145701
3767.54,0.145326
3770.28,0.145122
3773.02,0.144663
3775.77,0.14419
3778.52,0.143824
3781.28,0.143517
3784.04,0.143258
3786.8,0.143042
3789.57,0.142637
3792.34,0.142352
3795.12,0.142082
3797.9,0.141539
3800.69,0.140961
3803.47,0.140392
3806.27,0.139942
3809.06,0.139203
3811.86,0.138156
3814.67,0.136961
3817.48,0.135261
3820.29,0.133713
3823.11,0.132226
3825.93,0.130552
3828.76,0.128467
3831.59,0.126534
3834.42,0.125186
3837.26,0.124045
3840.1,0.123068
3842.95,0.122302
3845.8,0.121459
3848.65,0.120776
3851.51,0.120171
3854.38,0.119607
3857.24,0.118958
3860.12,0.118325
3862.99,0.117833
3865.87,0.117166
3868.76,0.116925
3871.65,0.117053
3874.54,0.116927
3877.44,0.117007
3880.34,0.117154
3883.25,0.117237
3886.16,0.117369
3889.07,0.117655
3891.99,0.118004
3894.92,0.118037
3897.85,0.118099
3900.78,0.118638
3903.72,0.119276
3906.66,0.119802
3909.6,0.120024
3912.55,0.119826
3915.51,0.119617
3918.47,0.119134
3921.43,0.117963
3924.4,0.116613
3927.38,0.115104
3930.35,0.113299
3933.33,0.111638
3936.32,0.110065
3939.31,0.108489
3942.31,0.107263
3945.31,0.106234
3948.31,0.105226
3951.32,0.103846
3954.34,0.102023
3957.35,0.100268
3960.38,0.098348
3963.41,0.096234
3966.44,0.094401
3969.48,0.092394
3972.52,0.089825
3975.56,0.087008
3978.61,0.084708
3981.67,0.082524
3984.73,0.080246
3987.8,0.078742
3990.87,0.078251
3993.94,0.078095
3997.02,0.078043
4000.1,0.077491
4003.19,0.076292
4006.29,0.074604
4009.39,0.072876
4012.49,0.071472
4015.6,0.071086
4018.71,0.072452
4021.83,0.075697
4024.95,0.080556
4028.08,0.086985
4031.21,0.094169
4034.35,0.101149
4037.49,0.107192
4040.64,0.112083
4043.79,0.116132
4046.94,0.119333
4050.11,0.121805
4053.27,0.124017
4056.44,0.126079
4059.62,0.127902
4062.8,0.129446
4065.99,0.130904
4069.18,0.132563
4072.38,0.134301
4075.58,0.135624
4078.78,0.136647
4082.0,0.137479
4085.21,0.138331
4088.43,0.138902
4091.66,0.139614
4094.89,0.140372
4098.13,0.140924
4101.37,0.14145
4104.62,0.141968
4107.87,0.142488
4111.13,0.142865
4114.39,0.143411
4117.66,0.143927
4120.93,0.144217
4124.21,0.144519
4127.5,0.145021
4130.79,0.145559
4134.08,0.145913
4137.38,0.146366
4140.68,0.146431
4143.99,0.146536
4147.31,0.146863
4150.63,0.146953
4153.95,0.14733
4157.29,0.147743
4160.62,0.147975
4163.96,0.147968
4167.31,0.147937
4170.66,0.148126
4174.02,0.148368
4177.39,0.148739
4180.75,0.148773
4184.13,0.148643
4187.51,0.148677
4190.89,0.14901
4194.28,0.149028
4197.68,0.148913
4201.08,0.148982
4204.49,0.149302
4207.9,0.149479
4211.32,0.149621
4214.74,0.149836
4218.17,0.150019
4221.61,0.150032
4225.05,0.150057
4228.5,0.150206
4231.95,0.150384
4235.4,0.150378
4238.87,0.150522
4242.34,0.150475
4245.81,0.150354
4249.29,0.150248
4252.78,0.150241
4256.27,0.150193
4259.77,0.150186
4263.27,0.150369
4266.78,0.150484
4270.29,0.150465
4273.81,0.150422
4277.34,0.150551
4280.87,0.150541
4284.41,0.150584
4287.95,0.150659
4291.5,0.150698
4295.06,0.150673
4298.62,0.150537
4302.19,0.1506
4305.76,0.150567
4309.34,0.150564
4312.92,0.150618
4316.52,0.150542
4320.11,0.150296
4323.72,0.150241
4327.32,0.150292
4330.94,0.150277
4334.56,0.150325
4338.19,0.150072
4341.82,0.149715
4345.46,0.149764
4349.11,0.149805
4352.76,0.149702
4356.42,0.149592
4360.08,0.14966
4363.75,0.14965
4367.43,0.149503
4371.11,0.149267
4374.8,0.149264
4378.49,0.149263
4382.19,0.149005
4385.9,0.148858
4389.61,0.149019
4393.33,0.148904
4397.06,0.148899
4400.79,0.149073
4404.53,0.14915
4408.28,0.149101
4412.03,0.149034
4415.79,0.148957
4419.55,0.148824
4423.32,0.148915
4427.1,0.149046
4430.88,0.148884
4434.68,0.148736
4438.47,0.148651
4442.28,0.148811
4446.08,0.148957
4449.9,0.148883
4453.72,0.148614
4457.55,0.148681
4461.39,0.148733
4465.23,0.148602
4469.08,0.148414
4472.94,0.14817
4476.8,0.148055
4480.67,0.148073
4484.55,0.148017
4488.43,0.14798
4492.32,0.147905
4496.21,0.147796
4500.12,0.147868
4504.03,0.147854
4507.94,0.147609
4511.87,0.147534
4515.8,0.147385
4519.73,0.147165
4523.68,0.147115
4527.63,0.147297
4531.59,0.14744
4535.55,0.147251
4539.52,0.147025
4543.5,0.146846
4547.49,0.146694
4551.48,0.146607
4555.48,0.146414
4559.49,0.146266
4563.5,0.14607
4567.52,0.14593
4571.55,0.14592
4575.58,0.145941
4579.63,0.145661
4583.67,0.145289
4587.73,0.145038
4591.79,0.144962
4595.86,0.14471
4599.94,0.144341
4604.03,0.143861
4608.12,0.14367
4612.22,0.143518
4616.33,0.143154
4620.44,0.142584
4624.56,0.142089
4628.69,0.141624
4632.83,0.141158
4636.97,0.140741
4641.12,0.140243
4645.28,0.139669
4649.45,0.139066
4653.62,0.138472
4657.8,0.137827
4661.99,0.137303
4666.19,0.136858
4670.39,0.136274
4674.6,0.13563
4678.82,0.134923
4683.05,0.134185
4687.28,0.133552
4691.52,0.132988
4695.77,0.132551
4700.03,0.132334
4704.3,0.131713
4708.57,0.130953
4712.85,0.130464
4717.14,0.129941
4721.43,0.129371
4725.74,0.1289
4730.05,0.128452
4734.37,0.128273
4738.7,0.128161
4743.03,0.1282
4747.38,0.128564
4751.73,0.12905
4756.09,0.129303
4760.45,0.1295
4764.83,0.129695
4769.21,0.129897
4773.6,0.129879
4778.0,0.129855
4782.41,0.129681
4786.83,0.129364
4791.25,0.129131
4795.68,0.128988
4800.13,0.128554
4804.57,0.128133
4809.03,0.127761
4813.5,0.127623
4817.97,0.127286
4822.45,0.126734
4826.94,0.126251
