Database of Origin,University of Winnipeg Spectrophotometer Facility
Sample Description,Carbonaceous chondrites - RELAB archive 8. Lab-heated carbonaceous chondrites
Other Information,Heated Ivuna 100C lamp18F
Date Added,2018-07-23 23:45:04.557352

Data ID,RLA_MET_40_7        
Sample ID,Ivuna
Mineral Name,Ivuna
Viewing Geometry,30/0/ 30
Resolution,5/ 0.6-129 nm
Material Class,CI1

Wavelength
305.0,0.018091
310.0,0.018081
315.0,0.018966
320.0,0.019098
325.0,0.019005
330.0,0.019513
335.0,0.019575
340.0,0.019797
345.0,0.020201
350.0,0.020206
355.0,0.020425
360.0,0.020889
365.0,0.02111
370.0,0.021292
375.0,0.021395
380.0,0.021878
385.0,0.022176
390.0,0.022587
395.0,0.022802
400.0,0.023228
405.0,0.023621
410.0,0.023884
415.0,0.024183
420.0,0.024418
425.0,0.024659
430.0,0.024937
435.0,0.025257
440.0,0.025407
445.0,0.025613
450.0,0.02592
455.0,0.025986
460.0,0.026142
465.0,0.026218
470.0,0.026195
475.0,0.026347
480.0,0.026445
485.0,0.026518
490.0,0.026724
495.0,0.02681
500.0,0.027022
505.0,0.027191
510.0,0.027651
515.0,0.027886
520.0,0.028105
525.0,0.028448
530.0,0.028766
535.0,0.028953
540.0,0.02922
545.0,0.029388
550.0,0.029585
555.0,0.029755
560.0,0.029757
565.0,0.029963
570.0,0.029951
575.0,0.030066
580.0,0.030102
585.0,0.030212
590.0,0.030199
595.0,0.030305
600.0,0.030348
605.0,0.030357
610.0,0.030446
615.0,0.030519
620.0,0.030606
625.0,0.030674
630.0,0.030706
635.0,0.030782
640.0,0.030661
645.0,0.030852
650.0,0.030734
655.0,0.03076
660.0,0.03083
665.0,0.030805
670.0,0.030794
675.0,0.030731
680.0,0.0308
685.0,0.030754
690.0,0.03066
695.0,0.030738
700.0,0.030766
705.0,0.030735
710.0,0.03056
715.0,0.030576
720.0,0.030555
725.0,0.03076
730.0,0.030589
735.0,0.030532
740.0,0.030478
745.0,0.030548
750.0,0.030706
755.0,0.030514
760.0,0.030471
765.0,0.030494
770.0,0.030498
775.0,0.03053
780.0,0.030386
785.0,0.030381
790.0,0.030357
795.0,0.030368
800.0,0.030469
805.0,0.030324
810.0,0.030272
815.0,0.030334
820.0,0.030222
825.0,0.030224
830.0,0.030146
835.0,0.030185
840.0,0.030115
845.0,0.03016
850.0,0.030001
855.0,0.030105
860.0,0.029976
865.0,0.030004
870.0,0.030078
875.0,0.030078
880.0,0.029877
885.0,0.029845
890.0,0.029964
895.0,0.029944
900.0,0.029898
905.0,0.029758
910.0,0.029665
915.0,0.02971
920.0,0.029659
925.0,0.029653
930.0,0.029556
935.0,0.029432
940.0,0.029428
945.0,0.02959
950.0,0.029479
955.0,0.029531
960.0,0.029418
965.0,0.029395
970.0,0.029393
975.0,0.029306
980.0,0.029383
985.0,0.029523
990.0,0.02941
995.0,0.029577
1000.0,0.02944
1005.0,0.029469
1010.0,0.029471
1015.0,0.029422
1020.0,0.029465
1025.0,0.029436
1030.0,0.029315
1035.0,0.02938
1040.0,0.029396
1045.0,0.029503
1050.0,0.02943
1055.0,0.029368
1060.0,0.02926
1065.0,0.029158
1070.0,0.029017
1075.0,0.029023
1080.0,0.028965
1085.0,0.028916
1090.0,0.028922
1095.0,0.028958
1100.0,0.028854
1105.0,0.02887
1110.0,0.028823
1115.0,0.028777
1120.0,0.028768
1125.0,0.028858
1130.0,0.028768
1135.0,0.028764
1140.0,0.02894
1145.0,0.028907
1150.0,0.028855
1155.0,0.028838
1160.0,0.028849
1165.0,0.028699
1170.0,0.028835
1175.0,0.028831
1180.0,0.028749
1185.0,0.02881
1190.0,0.028845
1195.0,0.028913
1200.0,0.0291
1205.0,0.029187
1210.0,0.029267
1215.0,0.029178
1220.0,0.029125
1225.0,0.02897
1230.0,0.028926
1235.0,0.028844
1240.0,0.028758
1245.0,0.028767
1250.0,0.028699
1255.0,0.028676
1260.0,0.028722
1265.0,0.028621
1270.0,0.028625
1275.0,0.02863
1280.0,0.028583
1285.0,0.028551
1290.0,0.028579
1295.0,0.028505
1300.0,0.028491
1305.0,0.028472
1310.0,0.02851
1315.0,0.028555
1320.0,0.028563
1325.0,0.028473
1330.0,0.028524
1335.0,0.028439
1340.0,0.028594
1345.0,0.028563
1350.0,0.028524
1355.0,0.028556
1360.0,0.028411
1365.0,0.028348
1370.0,0.028384
1375.0,0.02832
1380.0,0.028405
1385.0,0.028374
1390.0,0.028435
1395.0,0.028556
1400.0,0.028598
1405.0,0.028536
1410.0,0.028521
1415.0,0.028507
1420.0,0.028587
1425.0,0.028484
1430.0,0.028482
1435.0,0.028515
1440.0,0.028399
1445.0,0.028469
1450.0,0.028516
1455.0,0.028604
1460.0,0.02854
1465.0,0.028645
1470.0,0.028728
1475.0,0.028626
1480.0,0.028653
1485.0,0.0286
1490.0,0.028621
1495.0,0.028636
1500.0,0.028765
1505.0,0.028713
1510.0,0.028843
1515.0,0.028844
1520.0,0.028735
1525.0,0.028876
1530.0,0.028827
1535.0,0.028914
1540.0,0.028906
1545.0,0.028983
1550.0,0.029023
1555.0,0.029115
1560.0,0.029059
1565.0,0.029121
1570.0,0.029208
1575.0,0.029121
1580.0,0.029211
1585.0,0.029163
1590.0,0.029319
1595.0,0.029162
1600.0,0.029446
1605.0,0.029408
1610.0,0.029488
1615.0,0.029533
1620.0,0.029322
1625.0,0.029307
1630.0,0.029267
1635.0,0.029467
1640.0,0.029454
1645.0,0.02946
1650.0,0.02945
1655.0,0.029466
1660.0,0.029308
1665.0,0.029292
1670.0,0.02929
1675.0,0.029353
1680.0,0.029445
1685.0,0.029357
1690.0,0.029264
1695.0,0.029335
1700.0,0.029386
1705.0,0.029419
1710.0,0.029344
1715.0,0.029339
1720.0,0.029301
1725.0,0.029312
1730.0,0.02938
1735.0,0.029298
1740.0,0.029302
1745.0,0.029342
1750.0,0.029315
1755.0,0.029321
1760.0,0.029301
1765.0,0.029362
1770.0,0.02932
1775.0,0.029303
1780.0,0.029355
1785.0,0.02943
1790.0,0.029415
1795.0,0.029453
1800.0,0.029576
1805.0,0.029501
1810.0,0.029468
1815.0,0.029513
1820.0,0.029571
1825.0,0.029587
1830.0,0.029551
1835.0,0.029569
1840.0,0.029538
1845.0,0.029415
1850.0,0.029496
1855.0,0.029513
1860.0,0.029492
1865.0,0.029471
1870.0,0.029643
1875.0,0.029348
1880.0,0.029288
1885.0,0.029464
1890.0,0.029479
1895.0,0.029468
1900.0,0.029511
1905.0,0.029473
1910.0,0.029404
1915.0,0.029413
1920.0,0.029479
1925.0,0.029488
1930.0,0.029501
1935.0,0.029468
1940.0,0.029414
1945.0,0.029451
1950.0,0.029485
1955.0,0.02944
1960.0,0.029494
1965.0,0.029516
1970.0,0.029539
1975.0,0.029468
1980.0,0.02947
1985.0,0.029421
1990.0,0.029493
1995.0,0.029492
2000.0,0.029569
2005.0,0.029539
2010.0,0.02964
2015.0,0.0295
2020.0,0.029686
2025.0,0.029715
2030.0,0.029707
2035.0,0.029782
2040.0,0.029821
2045.0,0.029755
2050.0,0.029737
2055.0,0.029782
2060.0,0.029745
2065.0,0.029824
2070.0,0.029841
2075.0,0.030024
2080.0,0.029846
2085.0,0.02986
2090.0,0.029825
2095.0,0.029814
2100.0,0.029821
2105.0,0.02979
2110.0,0.029723
2115.0,0.029773
2120.0,0.029711
2125.0,0.029673
2130.0,0.029678
2135.0,0.029766
2140.0,0.029742
2145.0,0.029763
2150.0,0.029767
2155.0,0.029758
2160.0,0.029848
2165.0,0.029812
2170.0,0.02982
2175.0,0.029764
2180.0,0.0298
2185.0,0.029818
2190.0,0.029831
2195.0,0.029899
2200.0,0.029934
2205.0,0.02977
2210.0,0.029839
2215.0,0.029804
2220.0,0.029808
2225.0,0.029811
2230.0,0.029889
2235.0,0.03003
2240.0,0.030006
2245.0,0.029996
2250.0,0.029991
2255.0,0.030052
2260.0,0.03001
2265.0,0.029984
2270.0,0.030008
2275.0,0.029984
2280.0,0.029997
2285.0,0.030008
2290.0,0.029868
2295.0,0.02981
2300.0,0.029718
2305.0,0.029658
2310.0,0.029701
2315.0,0.029698
2320.0,0.029639
2325.0,0.029619
2330.0,0.029587
2335.0,0.029647
2340.0,0.029625
2345.0,0.029606
2350.0,0.029597
2355.0,0.029636
2360.0,0.02963
2365.0,0.029687
2370.0,0.029736
2375.0,0.029669
2380.0,0.029684
2385.0,0.029704
2390.0,0.029631
2395.0,0.029596
2400.0,0.029644
2405.0,0.029663
2410.0,0.029726
2415.0,0.029676
2420.0,0.029762
2425.0,0.029682
2430.0,0.029642
2435.0,0.029678
2440.0,0.029578
2445.0,0.029587
2450.0,0.029646
2455.0,0.029655
2460.0,0.029635
2465.0,0.029601
2470.0,0.029527
2475.0,0.029512
2480.0,0.029532
2485.0,0.029488
2490.0,0.029352
2495.0,0.02928
2500.0,0.029336
2502.0,0.029554
2503.2,0.0297
2504.41,0.029513
2505.62,0.029302
2506.83,0.029442
2508.05,0.02961
2509.26,0.029488
2510.48,0.029508
2511.69,0.029694
2512.91,0.029646
2514.13,0.029574
2515.35,0.029572
2516.57,0.029611
2517.79,0.029672
2519.02,0.029697
2520.24,0.029673
2521.47,0.029672
2522.69,0.029716
2523.92,0.029659
2525.15,0.029457
2526.38,0.02959
2527.61,0.029717
2528.85,0.029587
2530.08,0.029457
2531.32,0.029507
2532.55,0.029586
2533.79,0.029446
2535.03,0.029394
2536.27,0.029414
2537.51,0.029499
2538.75,0.029479
2540.0,0.029469
2541.24,0.029538
2542.49,0.029668
2543.74,0.029767
2544.99,0.029612
2546.24,0.02957
2547.49,0.029403
2548.74,0.02947
2549.99,0.029662
2551.25,0.029726
2552.5,0.02966
2553.76,0.029623
2555.02,0.029629
2556.28,0.029617
2557.54,0.029558
2558.8,0.029791
2560.07,0.02992
2561.33,0.029906
2562.6,0.029827
2563.86,0.02965
2565.13,0.029546
2566.4,0.029551
2567.67,0.029704
2568.95,0.029735
2570.22,0.029784
2571.5,0.029865
2572.77,0.029722
2574.05,0.029744
2575.33,0.029749
2576.61,0.029675
2577.89,0.029635
2579.17,0.029763
2580.46,0.029877
2581.74,0.029837
2583.03,0.029755
2584.31,0.029719
2585.6,0.029739
2586.89,0.029755
2588.19,0.029723
2589.48,0.029715
2590.77,0.029798
2592.07,0.029928
2593.36,0.029882
2594.66,0.029885
2595.96,0.029885
2597.26,0.029929
2598.56,0.030072
2599.87,0.029991
2601.17,0.029753
2602.48,0.029764
2603.78,0.029832
2605.09,0.029842
2606.4,0.029927
2607.71,0.029964
2609.03,0.029913
2610.34,0.029888
2611.66,0.029893
2612.97,0.029874
2614.29,0.029866
2615.61,0.029896
2616.93,0.029847
2618.25,0.029802
2619.57,0.029897
2620.9,0.029807
2622.22,0.029689
2623.55,0.029966
2624.88,0.029959
2626.21,0.029628
2627.54,0.029606
2628.87,0.029784
2630.21,0.029808
2631.54,0.029862
2632.88,0.029774
2634.21,0.029612
2635.55,0.029678
2636.89,0.029804
2638.24,0.02982
2639.58,0.029777
2640.92,0.029767
2642.27,0.029731
2643.62,0.029819
2644.97,0.02981
2646.32,0.029677
2647.67,0.029631
2649.02,0.029696
2650.38,0.029752
2651.73,0.029792
2653.09,0.029715
2654.45,0.029824
2655.81,0.029918
2657.17,0.029754
2658.53,0.029625
2659.89,0.029749
2661.26,0.02984
2662.63,0.029656
2664.0,0.029449
2665.36,0.029672
2666.74,0.029763
2668.11,0.029606
2669.48,0.02948
2670.86,0.029356
2672.23,0.029349
2673.61,0.029415
2674.99,0.02937
2676.37,0.029182
2677.76,0.02884
2679.14,0.028793
2680.52,0.028665
2681.91,0.028444
2683.3,0.028281
2684.69,0.027956
2686.08,0.027486
2687.47,0.026988
2688.87,0.026671
2690.26,0.026215
2691.66,0.02575
2693.06,0.025494
2694.46,0.025164
2695.86,0.024651
2697.26,0.024227
2698.66,0.023881
2700.07,0.023481
2701.48,0.02315
2702.89,0.022917
2704.3,0.022675
2705.71,0.022452
2707.12,0.022153
2708.53,0.022102
2709.95,0.021754
2711.37,0.021551
2712.79,0.021717
2714.21,0.02183
2715.63,0.021743
2717.05,0.021814
2718.48,0.021863
2719.9,0.021982
2721.33,0.022117
2722.76,0.022146
2724.19,0.022172
2725.62,0.022393
2727.06,0.022481
2728.49,0.022252
2729.93,0.022391
2731.37,0.022598
2732.81,0.022596
2734.25,0.022446
2735.69,0.02239
2737.14,0.022449
2738.58,0.022574
2740.03,0.022705
2741.48,0.022699
2742.93,0.022635
2744.38,0.022549
2745.83,0.022544
2747.29,0.022556
2748.75,0.022446
2750.2,0.022361
2751.66,0.022229
2753.13,0.022147
2754.59,0.02227
2756.05,0.022303
2757.52,0.022177
2758.99,0.022014
2760.46,0.022015
2761.93,0.022126
2763.4,0.022172
2764.87,0.022156
2766.35,0.022098
2767.82,0.022035
2769.3,0.02195
2770.78,0.02199
2772.26,0.021923
2773.75,0.021701
2775.23,0.021706
2776.72,0.021803
2778.21,0.021807
2779.7,0.021804
2781.19,0.021706
2782.68,0.021672
2784.18,0.021773
2785.67,0.021692
2787.17,0.021525
2788.67,0.021559
2790.17,0.021635
2791.67,0.021687
2793.18,0.021796
2794.68,0.021665
2796.19,0.021488
2797.7,0.0215
2799.21,0.021501
2800.72,0.021456
2802.24,0.021416
2803.75,0.021492
2805.27,0.021516
2806.79,0.021526
2808.31,0.021515
2809.83,0.021537
2811.35,0.021494
2812.88,0.021454
2814.41,0.021497
2815.93,0.021529
2817.46,0.021524
2819.0,0.021363
2820.53,0.021246
2822.07,0.021365
2823.6,0.021414
2825.14,0.02135
2826.68,0.021478
2828.22,0.021546
2829.77,0.021427
2831.31,0.021396
2832.86,0.02142
2834.41,0.021376
2835.96,0.021384
2837.51,0.02144
2839.07,0.02127
2840.62,0.021221
2842.18,0.021337
2843.74,0.021474
2845.3,0.021353
2846.86,0.021206
2848.43,0.021253
2849.99,0.021257
2851.56,0.021258
2853.13,0.021338
2854.7,0.02137
2856.27,0.021357
2857.85,0.021303
2859.42,0.021273
2861.0,0.021171
2862.58,0.021251
2864.16,0.021275
2865.75,0.021205
2867.33,0.021191
2868.92,0.02135
2870.51,0.021404
2872.1,0.021296
2873.69,0.021274
2875.28,0.021351
2876.88,0.021337
2878.48,0.021336
2880.07,0.021304
2881.68,0.021266
2883.28,0.0214
2884.88,0.021372
2886.49,0.021385
2888.1,0.021478
2889.71,0.021441
2891.32,0.02139
2892.93,0.021355
2894.55,0.021198
2896.16,0.021168
2897.78,0.021304
2899.4,0.021344
2901.03,0.021386
2902.65,0.021398
2904.28,0.02146
2905.91,0.021424
2907.54,0.021285
2909.17,0.021326
2910.8,0.021402
2912.44,0.021298
2914.07,0.021192
2915.71,0.021276
2917.35,0.021362
2918.99,0.021385
2920.64,0.021327
2922.29,0.02123
2923.93,0.021186
2925.58,0.021184
2927.24,0.02125
2928.89,0.021256
2930.55,0.021257
2932.2,0.021323
2933.86,0.021352
2935.52,0.021349
2937.19,0.021297
2938.85,0.021321
2940.52,0.021462
2942.19,0.021492
2943.86,0.021447
2945.53,0.021346
2947.21,0.021334
2948.88,0.021467
2950.56,0.021415
2952.24,0.02134
2953.92,0.021411
2955.61,0.021474
2957.29,0.021391
2958.98,0.021347
2960.67,0.021279
2962.36,0.02127
2964.06,0.021373
2965.75,0.021426
2967.45,0.021343
2969.15,0.021392
2970.85,0.021387
2972.55,0.021309
2974.26,0.021423
2975.97,0.021586
2977.68,0.021483
2979.39,0.021393
2981.1,0.021376
2982.82,0.021366
2984.53,0.021338
2986.25,0.021403
2987.97,0.021475
2989.7,0.021445
2991.42,0.021503
2993.15,0.021603
2994.88,0.021539
2996.61,0.021488
2998.34,0.021406
3000.08,0.021435
3001.82,0.021546
3003.55,0.021489
3005.3,0.021442
3007.04,0.021357
3008.78,0.021341
3010.53,0.021449
3012.28,0.021435
3014.03,0.021501
3015.79,0.021652
3017.54,0.021677
3019.3,0.021581
3021.06,0.021491
3022.82,0.021457
3024.58,0.021496
3026.35,0.021582
3028.12,0.021574
3029.89,0.021462
3031.66,0.021445
3033.43,0.021445
3035.21,0.02145
3036.99,0.021577
3038.77,0.021742
3040.55,0.021743
3042.33,0.021705
3044.12,0.021675
3045.91,0.021554
3047.7,0.021512
3049.49,0.021575
3051.29,0.021717
3053.08,0.021687
3054.88,0.021636
3056.68,0.021653
3058.49,0.021654
3060.29,0.021617
3062.1,0.021617
3063.91,0.021653
3065.72,0.021696
3067.54,0.021643
3069.35,0.021632
3071.17,0.021675
3072.99,0.021581
3074.81,0.021671
3076.64,0.021725
3078.47,0.021718
3080.29,0.021849
3082.13,0.021929
3083.96,0.021885
3085.79,0.021859
3087.63,0.021847
3089.47,0.021769
3091.31,0.021626
3093.16,0.021655
3095.01,0.021744
3096.85,0.021756
3098.71,0.02178
3100.56,0.021871
3102.41,0.021894
3104.27,0.021887
3106.13,0.021846
3107.99,0.021859
3109.86,0.021856
3111.73,0.021884
3113.59,0.021913
3115.47,0.022041
3117.34,0.022046
3119.21,0.022026
3121.09,0.022083
3122.97,0.022148
3124.86,0.022116
3126.74,0.022081
3128.63,0.022156
3130.52,0.022201
3132.41,0.022155
3134.3,0.022182
3136.2,0.02224
3138.1,0.02232
3140.0,0.022315
3141.9,0.022272
3143.81,0.022302
3145.71,0.02236
3147.62,0.022356
3149.54,0.022372
3151.45,0.022389
3153.37,0.022407
3155.29,0.022432
3157.21,0.022399
3159.13,0.022471
3161.06,0.022552
3162.99,0.022546
3164.92,0.022545
3166.85,0.022551
3168.79,0.022616
3170.72,0.022711
3172.67,0.022696
3174.61,0.022668
3176.55,0.022755
3178.5,0.022783
3180.45,0.022752
3182.4,0.022802
3184.36,0.022917
3186.32,0.022897
3188.27,0.022883
3190.24,0.022955
3192.2,0.023066
3194.17,0.023003
3196.14,0.023015
3198.11,0.023037
3200.08,0.023026
3202.06,0.023073
3204.04,0.023099
3206.02,0.023148
3208.0,0.023196
3209.99,0.023163
3211.98,0.023244
3213.97,0.023323
3215.96,0.023278
3217.96,0.023214
3219.96,0.023284
3221.96,0.023308
3223.96,0.023395
3225.97,0.023409
3227.98,0.023338
3229.99,0.023288
3232.0,0.023349
3234.02,0.023453
3236.04,0.023539
3238.06,0.023626
3240.08,0.023601
3242.11,0.023609
3244.14,0.023699
3246.17,0.023716
3248.2,0.023681
3250.24,0.023653
3252.28,0.023589
3254.32,0.023566
3256.37,0.023539
3258.41,0.023629
3260.46,0.023798
3262.51,0.023902
3264.57,0.023904
3266.63,0.023825
3268.69,0.023793
3270.75,0.023848
3272.81,0.023877
3274.88,0.023911
3276.95,0.023983
3279.02,0.02399
3281.1,0.023993
3283.18,0.023985
3285.26,0.023988
3287.34,0.024087
3289.43,0.024152
3291.51,0.024181
3293.61,0.024145
3295.7,0.02416
3297.8,0.024239
3299.9,0.024302
3302.0,0.024278
3304.1,0.024293
3306.21,0.024321
3308.32,0.024346
3310.43,0.02432
3312.55,0.024262
3314.66,0.024264
3316.79,0.024281
3318.91,0.024292
3321.03,0.024318
3323.16,0.024376
3325.29,0.024429
3327.43,0.024433
3329.57,0.024455
3331.71,0.024514
3333.85,0.024619
3335.99,0.024624
3338.14,0.02454
3340.29,0.024483
3342.45,0.024459
3344.6,0.024498
3346.76,0.024543
3348.92,0.024598
3351.09,0.024618
3353.26,0.024568
3355.43,0.024467
3357.6,0.024473
3359.78,0.024484
3361.96,0.024461
3364.14,0.024474
3366.32,0.024494
3368.51,0.024428
3370.7,0.024272
3372.89,0.024225
3375.09,0.024294
3377.29,0.024323
3379.49,0.02433
3381.69,0.024373
3383.9,0.024357
3386.11,0.024345
3388.32,0.024476
3390.54,0.024555
3392.76,0.024525
3394.98,0.024499
3397.21,0.024514
3399.43,0.024477
3401.66,0.02447
3403.9,0.024476
3406.13,0.024462
3408.37,0.024379
3410.61,0.024314
3412.86,0.024298
3415.11,0.024286
3417.36,0.024296
3419.61,0.024315
3421.87,0.024462
3424.13,0.024566
3426.39,0.024548
3428.66,0.024633
3430.93,0.024731
3433.2,0.024821
3435.48,0.024944
3437.76,0.025096
3440.04,0.025153
3442.32,0.02514
3444.61,0.025187
3446.9,0.025199
3449.19,0.025167
3451.49,0.025199
3453.79,0.025302
3456.09,0.025359
3458.4,0.025378
3460.7,0.025481
3463.02,0.025514
3465.33,0.025532
3467.65,0.025567
3469.97,0.025558
3472.29,0.025573
3474.62,0.025612
3476.95,0.025625
3479.29,0.025602
3481.62,0.025605
3483.96,0.025614
3486.3,0.025617
3488.65,0.025624
3491.0,0.025662
3493.35,0.025602
3495.71,0.02553
3498.07,0.025573
3500.43,0.025651
3502.79,0.025648
3505.16,0.025739
3507.53,0.025859
3509.91,0.025931
3512.29,0.026034
3514.67,0.02618
3517.05,0.026326
3519.44,0.026414
3521.83,0.026518
3524.23,0.026643
3526.62,0.026673
3529.02,0.026733
3531.43,0.026827
3533.83,0.02693
3536.24,0.026942
3538.66,0.026964
3541.08,0.027018
3543.5,0.027032
3545.92,0.027046
3548.35,0.027143
3550.78,0.027257
3553.21,0.027284
3555.65,0.027241
3558.09,0.027192
3560.53,0.027229
3562.98,0.027304
3565.43,0.027348
3567.88,0.027416
3570.34,0.02752
3572.8,0.027481
3575.27,0.027423
3577.73,0.027447
3580.2,0.027547
3582.68,0.027612
3585.16,0.027602
3587.64,0.027623
3590.12,0.027627
3592.61,0.027617
3595.1,0.027679
3597.6,0.027704
3600.09,0.027748
3602.6,0.027787
3605.1,0.027807
3607.61,0.027878
3610.12,0.027933
3612.64,0.027933
3615.16,0.028003
3617.68,0.028019
3620.21,0.028046
3622.74,0.028084
3625.27,0.028073
3627.81,0.028142
3630.35,0.028162
3632.89,0.028115
3635.44,0.028083
3637.99,0.028145
3640.54,0.028263
3643.1,0.028256
3645.66,0.028279
3648.23,0.028382
3650.8,0.028447
3653.37,0.028442
3655.95,0.028392
3658.53,0.028379
3661.11,0.028405
3663.7,0.02845
3666.29,0.028496
3668.89,0.028542
3671.48,0.028586
3674.09,0.028611
3676.69,0.028609
3679.3,0.028652
3681.91,0.02868
3684.53,0.028734
3687.15,0.028705
3689.78,0.02864
3692.4,0.028734
3695.04,0.02884
3697.67,0.02888
3700.31,0.028843
3702.95,0.028841
3705.6,0.028855
3708.25,0.028825
3710.91,0.028838
3713.56,0.02887
3716.23,0.028855
3718.89,0.028867
3721.56,0.028928
3724.23,0.028972
3726.91,0.028995
3729.59,0.029023
3732.28,0.029085
3734.97,0.029067
3737.66,0.029077
3740.36,0.029161
3743.06,0.029118
3745.76,0.029104
3748.47,0.029086
3751.18,0.029112
