Database of Origin,University of Winnipeg Spectrophotometer Facility
Sample Description,16.6. Meteorites - Carbonaceous chondrites 16.6.3. Samples from Pierre Hudon (JSC) - April 2004 (b) RELAB + Nicolet merged spectra
Date Added,2018-07-23 23:44:29.269382

Data ID,RLA_MET_27_5        
Sample ID,QUE97077
Mineral Name,Carbonaceous Chondrite
Grain Size,<75
Viewing Geometry,30/0/30
Resolution,5/0.3-475
Material Class,CM2

Wavelength
305.0,0.02342
310.0,0.02416
315.0,0.02414
320.0,0.024
325.0,0.02445
330.0,0.02449
335.0,0.02528
340.0,0.02621
345.0,0.02717
350.0,0.02773
355.0,0.02878
360.0,0.02928
365.0,0.02996
370.0,0.03073
375.0,0.03179
380.0,0.0325
385.0,0.03333
390.0,0.03433
395.0,0.03524
400.0,0.03567
405.0,0.03639
410.0,0.03701
415.0,0.03789
420.0,0.03864
425.0,0.03949
430.0,0.04019
435.0,0.04094
440.0,0.04158
445.0,0.04217
450.0,0.04271
455.0,0.04318
460.0,0.04363
465.0,0.0442
470.0,0.04467
475.0,0.04526
480.0,0.04585
485.0,0.04637
490.0,0.0469
495.0,0.04739
500.0,0.04775
505.0,0.04833
510.0,0.04877
515.0,0.04916
520.0,0.04954
525.0,0.04975
530.0,0.05014
535.0,0.05039
540.0,0.05066
545.0,0.05082
550.0,0.05104
555.0,0.05114
560.0,0.05126
565.0,0.05133
570.0,0.05137
575.0,0.05139
580.0,0.05139
585.0,0.05137
590.0,0.05132
595.0,0.05127
600.0,0.05126
605.0,0.05126
610.0,0.05118
615.0,0.05113
620.0,0.05111
625.0,0.05105
630.0,0.05094
635.0,0.05092
640.0,0.05078
645.0,0.05073
650.0,0.05064
655.0,0.05054
660.0,0.05041
665.0,0.05031
670.0,0.05021
675.0,0.05013
680.0,0.05005
685.0,0.04994
690.0,0.0499
695.0,0.04982
700.0,0.04986
705.0,0.04982
710.0,0.04983
715.0,0.04985
720.0,0.04984
725.0,0.04971
730.0,0.04978
735.0,0.04979
740.0,0.04987
745.0,0.04991
750.0,0.05001
755.0,0.05015
760.0,0.05027
765.0,0.05039
770.0,0.05053
775.0,0.05067
780.0,0.05079
785.0,0.05102
790.0,0.05115
795.0,0.05139
800.0,0.05169
805.0,0.05186
810.0,0.05197
815.0,0.05208
820.0,0.05218
825.0,0.0523
830.0,0.05253
835.0,0.05265
840.0,0.05283
845.0,0.05292
850.0,0.05307
855.0,0.05297
860.0,0.05303
865.0,0.05314
870.0,0.05318
875.0,0.05312
880.0,0.05319
885.0,0.05319
890.0,0.05318
895.0,0.0532
900.0,0.0533
905.0,0.05334
910.0,0.0534
915.0,0.05347
920.0,0.05353
925.0,0.05363
930.0,0.05366
935.0,0.05373
940.0,0.05381
945.0,0.0539
950.0,0.05397
955.0,0.05409
960.0,0.05421
965.0,0.05432
970.0,0.05441
975.0,0.0545
980.0,0.05464
985.0,0.05471
990.0,0.05485
995.0,0.05498
1000.0,0.0551
1005.0,0.05517
1010.0,0.05527
1015.0,0.05535
1020.0,0.0554
1025.0,0.05542
1030.0,0.05552
1035.0,0.05567
1040.0,0.05574
1045.0,0.05581
1050.0,0.05587
1055.0,0.05591
1060.0,0.05593
1065.0,0.05598
1070.0,0.05606
1075.0,0.05613
1080.0,0.05622
1085.0,0.05628
1090.0,0.05628
1095.0,0.05636
1100.0,0.05646
1105.0,0.05644
1110.0,0.05647
1115.0,0.05655
1120.0,0.05657
1125.0,0.05662
1130.0,0.05676
1135.0,0.05684
1140.0,0.05694
1145.0,0.05704
1150.0,0.05712
1155.0,0.05721
1160.0,0.05737
1165.0,0.05749
1170.0,0.05761
1175.0,0.05772
1180.0,0.05786
1185.0,0.05795
1190.0,0.05806
1195.0,0.05816
1200.0,0.05828
1205.0,0.05839
1210.0,0.05856
1215.0,0.05867
1220.0,0.0588
1225.0,0.05893
1230.0,0.05901
1235.0,0.05908
1240.0,0.05919
1245.0,0.05928
1250.0,0.05941
1255.0,0.0595
1260.0,0.05955
1265.0,0.05971
1270.0,0.05982
1275.0,0.05991
1280.0,0.06
1285.0,0.06018
1290.0,0.06028
1295.0,0.06039
1300.0,0.0605
1305.0,0.06065
1310.0,0.06076
1315.0,0.06089
1320.0,0.06103
1325.0,0.06114
1330.0,0.06127
1335.0,0.06137
1340.0,0.06149
1345.0,0.06154
1350.0,0.0616
1350.7,0.06163
1351.0,0.06166
1351.3,0.06161
1351.7,0.0616
1352.1,0.06164
1352.4,0.06166
1352.8,0.06171
1353.1,0.06175
1353.5,0.06173
1353.8,0.06165
1354.2,0.06166
1354.5,0.06172
1354.9,0.06174
1355.2,0.06179
1355.6,0.06183
1355.9,0.0618
1356.3,0.06179
1356.7,0.0618
1357.0,0.06176
1357.4,0.0618
1357.7,0.06187
1358.1,0.06184
1358.4,0.06176
1358.8,0.06173
1359.2,0.06173
1359.5,0.06178
1359.9,0.06187
1360.2,0.0619
1360.6,0.06189
1360.9,0.06188
1361.3,0.06186
1361.7,0.06192
1362.0,0.06195
1362.4,0.06194
1362.7,0.06196
1363.1,0.06201
1363.4,0.06202
1363.8,0.06197
1364.2,0.06197
1364.5,0.06199
1364.9,0.06204
1365.2,0.06207
1365.6,0.06208
1365.9,0.062
1366.3,0.062
1366.7,0.06209
1367.0,0.0621
1367.4,0.06205
1367.8,0.06207
1368.1,0.06209
1368.5,0.06207
1368.8,0.06201
1369.2,0.06201
1369.6,0.06206
1369.9,0.06207
1370.3,0.0621
1370.7,0.06214
1371.0,0.06216
1371.4,0.06218
1371.7,0.06223
1372.1,0.06221
1372.5,0.06223
1372.8,0.06225
1373.2,0.06224
1373.6,0.0622
1373.9,0.06222
1374.3,0.06224
1374.6,0.06219
1375.0,0.06214
1375.4,0.06215
1375.7,0.06226
1376.1,0.06229
1376.5,0.06228
1376.8,0.06227
1377.2,0.06226
1377.6,0.06225
1377.9,0.06225
1378.3,0.06224
1378.7,0.06231
1379.0,0.06238
1379.4,0.06234
1379.8,0.06229
1380.1,0.06227
1380.5,0.06233
1380.9,0.06234
1381.2,0.06234
1381.6,0.06236
1382.0,0.06237
1382.3,0.06237
1382.7,0.0624
1383.1,0.06239
1383.4,0.06235
1383.8,0.06239
1384.2,0.06245
1384.6,0.06245
1384.9,0.06245
1385.3,0.06242
1385.7,0.06243
1386.0,0.06247
1386.4,0.06246
1386.8,0.06246
1387.2,0.06251
1387.5,0.06254
1387.9,0.06253
1388.3,0.06252
1388.6,0.0625
1389.0,0.06253
1389.4,0.06255
1389.8,0.06256
1390.1,0.06254
1390.5,0.06252
1390.9,0.06251
1391.2,0.06251
1391.6,0.06257
1392.0,0.06256
1392.4,0.06256
1392.7,0.06259
1393.1,0.06258
1393.5,0.06257
1393.9,0.06257
1394.2,0.06257
1394.6,0.0626
1395.0,0.06261
1395.4,0.0626
1395.7,0.06264
1396.1,0.06272
1396.5,0.06273
1396.9,0.06271
1397.2,0.06267
1397.6,0.06263
1398.0,0.06268
1398.4,0.06276
1398.8,0.06278
1399.1,0.06277
1399.5,0.06276
1399.9,0.06276
1400.3,0.06275
1400.6,0.06273
1401.0,0.06272
1401.4,0.06274
1401.8,0.06277
1402.2,0.06272
1402.5,0.06271
1402.9,0.06274
1403.3,0.06279
1403.7,0.06283
1404.1,0.06283
1404.4,0.06286
1404.8,0.06288
1405.2,0.06285
1405.6,0.06287
1406.0,0.06293
1406.3,0.06295
1406.7,0.06292
1407.1,0.06288
1407.5,0.06292
1407.9,0.06298
1408.3,0.063
1408.6,0.06298
1409.0,0.06293
1409.4,0.06291
1409.8,0.06293
1410.2,0.06297
1410.6,0.06299
1410.9,0.06299
1411.3,0.06302
1411.7,0.06302
1412.1,0.06302
1412.5,0.06301
1412.8,0.06302
1413.2,0.06304
1413.6,0.063
1414.0,0.06297
1414.4,0.06303
1414.8,0.06308
1415.2,0.06308
1415.6,0.06308
1415.9,0.06308
1416.3,0.0631
1416.7,0.0631
1417.1,0.06309
1417.5,0.06309
1417.9,0.06313
1418.3,0.06315
1418.7,0.06312
1419.0,0.06313
1419.4,0.06318
1419.8,0.06318
1420.2,0.06317
1420.6,0.06319
1421.0,0.06321
1421.4,0.06324
1421.8,0.06322
1422.2,0.06322
1422.5,0.06321
1422.9,0.06322
1423.3,0.06321
1423.7,0.0632
1424.1,0.06326
1424.5,0.06326
1424.9,0.06322
1425.3,0.06321
1425.7,0.06327
1426.1,0.06333
1426.5,0.06333
1426.8,0.06337
1427.2,0.06343
1427.6,0.06341
1428.0,0.06337
1428.4,0.06332
1428.8,0.06333
1429.2,0.06338
1429.6,0.0634
1430.0,0.06338
1430.4,0.06338
1430.8,0.06343
1431.2,0.06348
1431.6,0.06345
1432.0,0.06346
1432.4,0.0635
1432.8,0.06349
1433.2,0.06344
1433.6,0.06348
1433.9,0.06354
1434.3,0.06352
1434.8,0.0635
1435.1,0.06359
1435.5,0.06365
1435.9,0.06362
1436.3,0.0636
1436.7,0.06355
1437.1,0.06356
1437.5,0.06361
1437.9,0.06363
1438.3,0.06362
1438.7,0.06364
1439.1,0.06366
1439.5,0.06366
1439.9,0.06364
1440.3,0.06364
1440.7,0.06369
1441.1,0.06369
1441.5,0.06365
1441.9,0.06365
1442.3,0.06367
1442.7,0.06368
1443.1,0.06368
1443.5,0.06371
1443.9,0.06372
1444.3,0.06372
1444.7,0.06374
1445.1,0.06375
1445.6,0.06376
1445.9,0.0638
1446.3,0.06383
1446.8,0.06381
1447.2,0.06378
1447.6,0.06383
1448.0,0.06387
1448.4,0.06385
1448.8,0.06385
1449.2,0.06387
1449.6,0.06386
1450.0,0.06388
1450.4,0.06388
1450.8,0.06385
1451.2,0.06387
1451.6,0.06391
1452.0,0.0639
1452.4,0.06386
1452.8,0.06388
1453.2,0.06393
1453.7,0.06397
1454.1,0.06401
1454.5,0.06402
1454.9,0.064
1455.3,0.06403
1455.7,0.06408
1456.1,0.06405
1456.5,0.06402
1456.9,0.06397
1457.3,0.06399
1457.7,0.06404
1458.2,0.06406
1458.6,0.06407
1459.0,0.06406
1459.4,0.06406
1459.8,0.06407
1460.2,0.06411
1460.6,0.06412
1461.0,0.06413
1461.4,0.06416
1461.8,0.06417
1462.3,0.06419
1462.7,0.06417
1463.1,0.0642
1463.5,0.06422
1463.9,0.06423
1464.3,0.06423
1464.7,0.0642
1465.2,0.06414
1465.6,0.06415
1466.0,0.06422
1466.4,0.06426
1466.8,0.06427
1467.2,0.06425
1467.6,0.06423
1468.1,0.06425
1468.5,0.06427
1468.9,0.06424
1469.3,0.06428
1469.7,0.06435
1470.1,0.06437
1470.6,0.06436
1471.0,0.06434
1471.4,0.06433
1471.8,0.06436
1472.2,0.06436
1472.6,0.06435
1473.1,0.06435
1473.5,0.06437
1473.9,0.06442
1474.3,0.06443
1474.7,0.06443
1475.2,0.06445
1475.6,0.06446
1476.0,0.06444
1476.4,0.06447
1476.8,0.06446
1477.3,0.06448
1477.7,0.06448
1478.1,0.06448
1478.5,0.06449
1478.9,0.0645
1479.4,0.06452
1479.8,0.0645
1480.2,0.06453
1480.6,0.06457
1481.1,0.06453
1481.5,0.06452
1481.9,0.06456
1482.3,0.06459
1482.8,0.06458
1483.2,0.06458
1483.6,0.0646
1484.0,0.0646
1484.4,0.06459
1484.9,0.06462
1485.3,0.06465
1485.7,0.06467
1486.2,0.06468
1486.6,0.06464
1487.0,0.06467
1487.4,0.0647
1487.9,0.06464
1488.3,0.06463
1488.7,0.0647
1489.1,0.06471
1489.6,0.06472
1490.0,0.06471
1490.4,0.06469
1490.8,0.06476
1491.3,0.06481
1491.7,0.06479
1492.1,0.06478
1492.6,0.0648
1493.0,0.06483
1493.4,0.06481
1493.9,0.06481
1494.3,0.06481
1494.7,0.06482
1495.2,0.0648
1495.6,0.06479
1496.0,0.06484
1496.4,0.06488
1496.9,0.06493
1497.3,0.06495
1497.7,0.06496
1498.2,0.06494
1498.6,0.0649
1499.0,0.06484
1499.5,0.0649
1499.9,0.06496
1500.3,0.06496
1500.8,0.06497
1501.2,0.06497
1501.7,0.06496
1502.1,0.06498
1502.5,0.06498
1502.9,0.06497
1503.4,0.06499
1503.8,0.065
1504.3,0.06497
1504.7,0.065
1505.1,0.06503
1505.6,0.06505
1506.0,0.06504
1506.4,0.06504
1506.9,0.06507
1507.3,0.06507
1507.8,0.06508
1508.2,0.06509
1508.6,0.06506
1509.1,0.06509
1509.5,0.06511
1510.0,0.06511
1510.4,0.0651
1510.8,0.06513
1511.3,0.06519
1511.7,0.0652
1512.2,0.06517
1512.6,0.06514
1513.0,0.06518
1513.5,0.06523
1513.9,0.06521
1514.4,0.06519
1514.8,0.06519
1515.3,0.06519
1515.7,0.0652
1516.1,0.06522
1516.6,0.06523
1517.0,0.06524
1517.5,0.06527
1517.9,0.06529
1518.4,0.06529
1518.8,0.06528
1519.3,0.06526
1519.7,0.06527
1520.1,0.06529
1520.6,0.06529
1521.0,0.06533
1521.5,0.06535
1521.9,0.06534
1522.4,0.06535
1522.8,0.06539
1523.3,0.06539
1523.7,0.06543
1524.2,0.06547
1524.6,0.06545
1525.1,0.06543
1525.5,0.06541
1525.9,0.06543
1526.4,0.06546
1526.8,0.06545
1527.3,0.06543
1527.8,0.06546
1528.2,0.06549
1528.7,0.06548
1529.1,0.06549
1529.6,0.06548
1530.0,0.06549
1530.5,0.06553
1530.9,0.06551
1531.4,0.06552
1531.8,0.06553
1532.3,0.06554
1532.7,0.06558
1533.2,0.06558
1533.6,0.06554
1534.1,0.06559
1534.5,0.06564
1535.0,0.06563
1535.4,0.06562
1535.9,0.06561
1536.3,0.06562
1536.8,0.0656
1537.3,0.06561
1537.7,0.06565
1538.2,0.06567
1538.6,0.06567
1539.1,0.06568
1539.6,0.06566
1540.0,0.06567
1540.5,0.06574
1540.9,0.06577
1541.4,0.06574
1541.8,0.06573
1542.3,0.06575
1542.8,0.06573
1543.2,0.06571
1543.7,0.0657
1544.1,0.06573
1544.6,0.06575
1545.1,0.06576
1545.5,0.06579
1546.0,0.0658
1546.4,0.06582
1546.9,0.06583
1547.4,0.06581
1547.8,0.06583
1548.3,0.06587
1548.8,0.06586
1549.2,0.06584
1549.7,0.06582
1550.1,0.06582
1550.6,0.06586
1551.1,0.06588
1551.5,0.06589
1552.0,0.06593
1552.4,0.06593
1552.9,0.0659
1553.4,0.06589
1553.8,0.06589
1554.3,0.06594
1554.8,0.06598
1555.3,0.06597
1555.7,0.06598
1556.2,0.066
1556.7,0.06599
1557.1,0.066
1557.6,0.066
1558.1,0.06599
1558.5,0.06598
1559.0,0.06596
1559.5,0.06601
1559.9,0.06604
1560.4,0.06609
1560.9,0.06613
1561.3,0.0661
1561.8,0.06605
1562.3,0.06603
1562.8,0.06605
1563.2,0.06606
1563.7,0.06609
1564.2,0.06613
1564.6,0.06614
1565.1,0.06613
1565.6,0.06611
1566.1,0.06612
1566.5,0.06615
1567.0,0.06618
1567.5,0.0662
1567.9,0.0662
1568.4,0.0662
1568.9,0.06617
1569.4,0.06619
1569.8,0.06621
1570.3,0.06619
1570.8,0.06619
1571.3,0.0662
1571.8,0.0662
1572.2,0.06622
1572.7,0.06626
1573.2,0.0663
1573.7,0.06631
1574.1,0.06626
1574.6,0.06626
1575.1,0.06628
1575.6,0.06629
1576.1,0.06632
1576.5,0.06632
1577.0,0.06632
1577.5,0.06638
1578.0,0.06637
1578.4,0.06634
1578.9,0.06637
1579.4,0.06633
1579.9,0.0663
1580.4,0.06633
1580.9,0.06638
1581.3,0.06638
1581.8,0.06636
1582.3,0.06636
1582.8,0.06637
1583.3,0.0664
1583.8,0.0664
1584.2,0.06639
1584.7,0.06643
1585.2,0.06649
1585.7,0.06653
1586.2,0.0665
1586.7,0.06647
1587.2,0.06647
1587.6,0.06648
1588.1,0.06648
1588.6,0.0665
1589.1,0.06653
1589.6,0.06658
1590.1,0.06654
1590.6,0.06651
1591.0,0.06656
1591.5,0.06658
1592.0,0.06658
1592.5,0.06659
1593.0,0.06662
1593.5,0.0666
1594.0,0.06658
1594.5,0.06662
1595.0,0.06664
1595.4,0.06664
1595.9,0.06666
1596.4,0.06665
1596.9,0.06664
1597.4,0.06665
1597.9,0.06667
1598.4,0.06673
1598.9,0.06674
1599.4,0.06669
1599.9,0.06666
1600.4,0.06667
1600.9,0.06673
1601.4,0.06678
1601.9,0.06678
1602.3,0.06673
1602.8,0.06672
1603.3,0.06674
1603.8,0.06679
1604.3,0.06685
1604.8,0.06685
1605.3,0.06681
1605.8,0.06679
1606.3,0.06683
1606.8,0.06686
1607.3,0.06684
1607.8,0.06684
1608.3,0.06684
1608.8,0.06685
1609.3,0.06689
1609.8,0.06691
1610.3,0.06688
1610.8,0.06688
1611.3,0.06691
1611.8,0.0669
1612.3,0.06692
1612.8,0.0669
1613.3,0.06688
1613.8,0.06691
1614.3,0.06691
1614.8,0.06692
1615.3,0.06693
1615.8,0.06691
1616.3,0.06693
1616.8,0.06697
1617.3,0.06699
1617.8,0.06697
1618.4,0.06695
1618.9,0.06697
1619.4,0.067
1619.9,0.067
1620.4,0.067
1620.9,0.06702
1621.4,0.06704
1621.9,0.06704
1622.4,0.06703
1622.9,0.06707
1623.4,0.0671
1623.9,0.06708
1624.4,0.06705
1624.9,0.06706
1625.5,0.0671
1626.0,0.06708
1626.5,0.06707
1627.0,0.06715
1627.5,0.06721
1628.0,0.06718
1628.5,0.06714
1629.0,0.06712
1629.6,0.06713
1630.1,0.06713
1630.6,0.06718
1631.1,0.06724
1631.6,0.0672
1632.1,0.0672
1632.6,0.06718
1633.1,0.06718
1633.7,0.06721
1634.2,0.06721
1634.7,0.06724
1635.2,0.06729
1635.7,0.06725
1636.2,0.06723
1636.8,0.06726
1637.3,0.06727
1637.8,0.06728
1638.3,0.06727
1638.8,0.06725
1639.3,0.06728
1639.8,0.06731
1640.4,0.06732
1640.9,0.06731
1641.4,0.0673
1641.9,0.06731
1642.4,0.06735
1643.0,0.06738
1643.5,0.06738
1644.0,0.06741
1644.5,0.06743
1645.1,0.06741
1645.6,0.06743
1646.1,0.06741
1646.6,0.06739
1647.2,0.06742
1647.7,0.06743
1648.2,0.06743
1648.7,0.06743
1649.2,0.06744
1649.8,0.06746
1650.3,0.06748
1650.8,0.06749
1651.3,0.0675
1651.9,0.06748
1652.4,0.06746
1652.9,0.06745
1653.4,0.0675
1654.0,0.06755
1654.5,0.06754
1655.0,0.06752
1655.6,0.06754
1656.1,0.06758
1656.6,0.06758
1657.2,0.06754
1657.7,0.06753
1658.2,0.06756
1658.7,0.06758
1659.3,0.06759
1659.8,0.0676
1660.3,0.0676
1660.9,0.06761
1661.4,0.06765
1661.9,0.06764
1662.5,0.06763
1663.0,0.06767
1663.5,0.06768
1664.1,0.06765
1664.6,0.06765
1665.1,0.06763
1665.7,0.06762
1666.2,0.06767
1666.7,0.06773
1667.3,0.06775
1667.8,0.06775
1668.3,0.06778
1668.9,0.06775
1669.4,0.06775
1670.0,0.06778
1670.5,0.06777
1671.0,0.06777
1671.6,0.06777
1672.1,0.06778
1672.7,0.0678
1673.2,0.06777
1673.7,0.06776
1674.3,0.06781
1674.8,0.06785
1675.4,0.06786
1675.9,0.06784
1676.4,0.06783
1677.0,0.06785
1677.5,0.06789
1678.1,0.06788
1678.6,0.06786
1679.2,0.06788
1679.7,0.06791
1680.2,0.06793
1680.8,0.06793
1681.3,0.0679
1681.9,0.06789
1682.4,0.06793
1683.0,0.06791
1683.5,0.06788
1684.1,0.0679
1684.6,0.06793
1685.2,0.06794
1685.7,0.06796
1686.3,0.06796
1686.8,0.06796
1687.3,0.06798
1687.9,0.06801
1688.4,0.06802
1689.0,0.06799
1689.6,0.068
1690.1,0.06805
1690.7,0.06804
1691.2,0.06802
1691.8,0.06803
1692.3,0.06807
1692.9,0.06805
1693.4,0.06804
1694.0,0.06807
1694.5,0.06811
1695.1,0.06811
1695.6,0.06808
1696.2,0.06808
1696.7,0.06812
1697.3,0.06811
1697.8,0.06811
1698.4,0.06815
1699.0,0.06817
1699.5,0.06818
1700.1,0.06817
1700.6,0.06817
1701.2,0.0682
1701.8,0.06822
1702.3,0.06822
1702.9,0.06824
1703.4,0.06823
1704.0,0.06823
1704.6,0.06822
1705.1,0.06822
1705.7,0.06823
1706.2,0.06825
1706.8,0.06825
1707.4,0.06823
1707.9,0.06823
1708.5,0.06827
1709.0,0.06831
1709.6,0.06832
1710.2,0.06833
1710.7,0.06835
1711.3,0.06835
1711.9,0.06832
1712.4,0.06834
1713.0,0.06836
1713.6,0.06836
1714.1,0.06837
1714.7,0.06835
1715.3,0.06832
1715.8,0.06833
1716.4,0.06835
1717.0,0.06838
1717.5,0.06842
1718.1,0.06844
1718.7,0.06844
1719.2,0.06846
1719.8,0.06844
1720.4,0.06841
1721.0,0.06842
1721.5,0.06848
1722.1,0.06849
1722.7,0.06849
1723.2,0.0685
1723.8,0.0685
1724.4,0.06847
1725.0,0.06847
1725.5,0.06848
1726.1,0.0685
1726.7,0.06851
1727.3,0.06851
1727.8,0.06851
1728.4,0.06852
1729.0,0.06856
1729.6,0.06858
1730.1,0.06857
1730.7,0.06858
1731.3,0.06855
1731.9,0.06857
1732.5,0.0686
1733.0,0.0686
1733.6,0.0686
1734.2,0.06863
1734.8,0.06866
1735.4,0.06865
1735.9,0.06863
1736.5,0.06862
1737.1,0.06862
1737.7,0.06863
1738.3,0.06866
1738.8,0.06866
1739.4,0.06866
1740.0,0.06869
1740.6,0.06867
1741.2,0.06869
1741.8,0.06869
1742.3,0.06872
1742.9,0.06874
1743.5,0.06874
1744.1,0.06873
1744.7,0.06872
1745.3,0.06874
1745.9,0.06876
1746.5,0.06878
1747.1,0.06878
1747.6,0.0688
1748.2,0.06882
1748.8,0.0688
1749.4,0.06878
1750.0,0.06879
1750.6,0.0688
1751.2,0.06877
1751.8,0.06877
1752.4,0.0688
1753.0,0.0688
1753.6,0.06885
1754.1,0.06889
1754.7,0.06886
1755.3,0.06883
1755.9,0.06886
1756.5,0.06888
1757.1,0.06888
1757.7,0.0689
1758.3,0.06889
1758.9,0.0689
1759.5,0.06893
1760.1,0.06895
1760.7,0.06895
1761.3,0.06893
1761.9,0.06893
1762.5,0.06896
1763.1,0.06897
1763.7,0.06899
1764.3,0.06901
1764.9,0.06901
1765.5,0.06901
1766.1,0.069
1766.7,0.06899
1767.3,0.06901
1767.9,0.06903
1768.5,0.06905
1769.1,0.06904
1769.7,0.06903
1770.3,0.06905
1770.9,0.06907
1771.5,0.0691
1772.1,0.06909
1772.7,0.06908
1773.3,0.06909
1773.9,0.06906
1774.6,0.06909
1775.2,0.06911
1775.8,0.06911
1776.4,0.06913
1777.0,0.06915
1777.6,0.06913
1778.2,0.06914
1778.8,0.06916
1779.4,0.06916
1780.0,0.06917
1780.7,0.06917
1781.3,0.06917
1781.9,0.06919
1782.5,0.06922
1783.1,0.06921
1783.7,0.06921
1784.3,0.06925
1784.9,0.06929
1785.6,0.06929
1786.2,0.06926
1786.8,0.06926
1787.4,0.0693
1788.0,0.06932
1788.6,0.06929
1789.3,0.06928
1789.9,0.06931
1790.5,0.06935
1791.1,0.06939
1791.7,0.06937
1792.3,0.06935
1793.0,0.06936
1793.6,0.06935
1794.2,0.06936
1794.8,0.06938
1795.4,0.06939
1796.1,0.06938
1796.7,0.06939
1797.3,0.06943
1797.9,0.06942
1798.6,0.06942
1799.2,0.06945
1799.8,0.06945
1800.4,0.06945
1801.1,0.06943
1801.7,0.0694
1802.3,0.06943
1802.9,0.06946
1803.6,0.0695
1804.2,0.0695
1804.8,0.06949
1805.4,0.06949
1806.1,0.06949
1806.7,0.06951
1807.3,0.06952
1808.0,0.06956
1808.6,0.06957
1809.2,0.06956
1809.9,0.06953
1810.5,0.06954
1811.1,0.06955
1811.8,0.06957
1812.4,0.06958
1813.0,0.06955
1813.7,0.06955
1814.3,0.06958
1814.9,0.06959
1815.6,0.06961
1816.2,0.06965
1816.8,0.06967
1817.5,0.06963
1818.1,0.06962
1818.8,0.06964
1819.4,0.06966
1820.0,0.06965
1820.7,0.06966
1821.3,0.06968
1821.9,0.06968
1822.6,0.06967
1823.2,0.0697
1823.9,0.0697
1824.5,0.06971
1825.2,0.06972
1825.8,0.06974
1826.4,0.06976
1827.1,0.06975
1827.7,0.06975
1828.4,0.06976
1829.0,0.06978
1829.7,0.0698
1830.3,0.06978
1831.0,0.06978
1831.6,0.06977
1832.3,0.06975
1832.9,0.06975
1833.6,0.06979
1834.2,0.06986
1834.8,0.0699
1835.5,0.06989
1836.1,0.06989
1836.8,0.06991
1837.4,0.0699
1838.1,0.06988
1838.8,0.06987
1839.4,0.0699
1840.1,0.0699
1840.7,0.06992
1841.4,0.06995
1842.0,0.06994
1842.7,0.06992
1843.3,0.06996
1844.0,0.06999
1844.6,0.06996
