Database of Origin,University of Winnipeg Spectrophotometer Facility
Sample Description,16.12. Meteorites - Ureilites 16.12.3. Pierre Hudon (JSC) samples (b) RELAB spectra
Other Information,c1ph23
Date Added,2018-07-23 23:49:06.871228

Data ID,RLA_MET2_8_9        
Sample ID,GRA95205
Mineral Name,ureilite
Grain Size,<75 um
Viewing Geometry,30/0
Resolution,5 nm

Wavelength
305.0,0.04842
310.0,0.05021
315.0,0.05278
320.0,0.05535
325.0,0.05541
330.0,0.05684
335.0,0.05637
340.0,0.05726
345.0,0.05778
350.0,0.05791
355.0,0.05927
360.0,0.06013
365.0,0.06081
370.0,0.06207
375.0,0.06389
380.0,0.06578
385.0,0.06801
390.0,0.07051
395.0,0.07321
400.0,0.07479
405.0,0.07672
410.0,0.0788
415.0,0.081
420.0,0.08334
425.0,0.08592
430.0,0.08894
435.0,0.09176
440.0,0.09483
445.0,0.09721
450.0,0.09946
455.0,0.10123
460.0,0.10233
465.0,0.10362
470.0,0.10463
475.0,0.10573
480.0,0.10692
485.0,0.10855
490.0,0.11033
495.0,0.11219
500.0,0.11465
505.0,0.11667
510.0,0.11966
515.0,0.12175
520.0,0.12448
525.0,0.12702
530.0,0.12992
535.0,0.13254
540.0,0.1351
545.0,0.13755
550.0,0.13944
555.0,0.14138
560.0,0.14304
565.0,0.14462
570.0,0.14583
575.0,0.14715
580.0,0.1481
585.0,0.14865
590.0,0.14955
595.0,0.15021
600.0,0.15057
605.0,0.15071
610.0,0.15189
615.0,0.15213
620.0,0.15274
625.0,0.15267
630.0,0.15329
635.0,0.1537
640.0,0.15397
645.0,0.15384
650.0,0.15384
655.0,0.15399
660.0,0.15376
665.0,0.1542
670.0,0.15385
675.0,0.15382
680.0,0.15373
685.0,0.15376
690.0,0.15362
695.0,0.15333
700.0,0.1537
705.0,0.15325
710.0,0.15364
715.0,0.15333
720.0,0.15329
725.0,0.15356
730.0,0.1532
735.0,0.15327
740.0,0.15297
745.0,0.15307
750.0,0.15271
755.0,0.15299
760.0,0.15255
765.0,0.15228
770.0,0.152
775.0,0.15143
780.0,0.15123
785.0,0.15089
790.0,0.1506
795.0,0.15033
800.0,0.15021
805.0,0.14979
810.0,0.14919
815.0,0.14902
820.0,0.1484
825.0,0.14784
830.0,0.14736
835.0,0.14664
840.0,0.14624
845.0,0.14568
850.0,0.1453
855.0,0.14467
860.0,0.14415
865.0,0.14365
870.0,0.14326
875.0,0.14282
880.0,0.14251
885.0,0.14215
890.0,0.14184
895.0,0.14166
900.0,0.14147
905.0,0.14111
910.0,0.14098
915.0,0.14082
920.0,0.1406
925.0,0.14053
930.0,0.14058
935.0,0.14058
940.0,0.14059
945.0,0.14061
950.0,0.14057
955.0,0.14073
960.0,0.14095
965.0,0.14112
970.0,0.14131
975.0,0.14139
980.0,0.14143
985.0,0.14141
990.0,0.14153
995.0,0.14162
1000.0,0.14181
1005.0,0.14201
1010.0,0.14229
1015.0,0.14243
1020.0,0.14252
1025.0,0.14268
1030.0,0.14278
1035.0,0.14287
1040.0,0.14298
1045.0,0.14307
1050.0,0.14314
1055.0,0.14327
1060.0,0.14336
1065.0,0.14339
1070.0,0.14351
1075.0,0.14354
1080.0,0.14359
1085.0,0.14366
1090.0,0.14374
1095.0,0.14384
1100.0,0.14404
1105.0,0.14421
1110.0,0.14442
1115.0,0.14472
1120.0,0.14489
1125.0,0.14516
1130.0,0.14533
1135.0,0.14547
1140.0,0.14552
1145.0,0.14566
1150.0,0.14561
1155.0,0.1457
1160.0,0.14569
1165.0,0.14576
1170.0,0.14581
1175.0,0.14591
1180.0,0.14591
1185.0,0.14594
1190.0,0.14602
1195.0,0.14609
1200.0,0.14616
1205.0,0.1463
1210.0,0.14643
1215.0,0.14649
1220.0,0.14658
1225.0,0.1465
1230.0,0.14651
1235.0,0.14651
1240.0,0.14648
1245.0,0.14638
1250.0,0.1464
1255.0,0.14626
1260.0,0.14621
1265.0,0.14611
1270.0,0.14602
1275.0,0.14583
1280.0,0.14576
1285.0,0.14568
1290.0,0.1457
1295.0,0.14567
1300.0,0.14569
1305.0,0.14566
1310.0,0.14565
1315.0,0.14567
1320.0,0.14579
1325.0,0.14585
1330.0,0.14586
1335.0,0.14589
1340.0,0.14593
1345.0,0.14605
1350.0,0.14605
1355.0,0.14594
1360.0,0.146
1365.0,0.1458
1370.0,0.1459
1375.0,0.1455
1380.0,0.14555
1385.0,0.14569
1390.0,0.14617
1395.0,0.14615
1400.0,0.14647
1405.0,0.14671
1410.0,0.14681
1415.0,0.14665
1420.0,0.14637
1425.0,0.14634
1430.0,0.14631
1435.0,0.14628
1440.0,0.14637
1445.0,0.14646
1450.0,0.14673
1455.0,0.14671
1460.0,0.14667
1465.0,0.14652
1470.0,0.14649
1475.0,0.14638
1480.0,0.14646
1485.0,0.1465
1490.0,0.14667
1495.0,0.14682
1500.0,0.14692
1505.0,0.14692
1510.0,0.14691
1515.0,0.14685
1520.0,0.14671
1525.0,0.14668
1530.0,0.14672
1535.0,0.14672
1540.0,0.14677
1545.0,0.14683
1550.0,0.14678
1555.0,0.14674
1560.0,0.14671
1565.0,0.14669
1570.0,0.14667
1575.0,0.14662
1580.0,0.14654
1585.0,0.14658
1590.0,0.14649
1595.0,0.14648
1600.0,0.14649
1605.0,0.14651
1610.0,0.14646
1615.0,0.14649
1620.0,0.14645
1625.0,0.14626
1630.0,0.14613
1635.0,0.14602
1640.0,0.14589
1645.0,0.14593
1650.0,0.146
1655.0,0.14606
1660.0,0.14614
1665.0,0.14619
1670.0,0.14621
1675.0,0.14627
1680.0,0.1462
1685.0,0.14617
1690.0,0.1462
1695.0,0.14616
1700.0,0.14632
1705.0,0.14637
1710.0,0.14618
1715.0,0.14601
1720.0,0.14599
1725.0,0.1459
1730.0,0.1459
1735.0,0.14583
1740.0,0.14576
1745.0,0.14561
1750.0,0.14561
1755.0,0.14553
1760.0,0.1455
1765.0,0.1453
1770.0,0.14535
1775.0,0.14524
1780.0,0.14525
1785.0,0.14522
1790.0,0.14522
1795.0,0.14519
1800.0,0.14507
1805.0,0.14507
1810.0,0.14496
1815.0,0.14496
1820.0,0.14494
1825.0,0.14519
1830.0,0.14486
1835.0,0.14504
1840.0,0.14493
1845.0,0.14504
1850.0,0.14498
1855.0,0.14498
1860.0,0.14474
1865.0,0.14479
1870.0,0.14471
1875.0,0.14438
1880.0,0.14434
1885.0,0.14455
1890.0,0.14447
1895.0,0.14442
1900.0,0.14452
1905.0,0.14433
1910.0,0.14404
1915.0,0.144
1920.0,0.14373
1925.0,0.14394
1930.0,0.14405
1935.0,0.14416
1940.0,0.14422
1945.0,0.14423
1950.0,0.14411
1955.0,0.14409
1960.0,0.14423
1965.0,0.14433
1970.0,0.14443
1975.0,0.14444
1980.0,0.14475
1985.0,0.14462
1990.0,0.14459
1995.0,0.14469
2000.0,0.14486
2005.0,0.14469
2010.0,0.14464
2015.0,0.14456
2020.0,0.14451
2025.0,0.14439
2030.0,0.14443
2035.0,0.14438
2040.0,0.14453
2045.0,0.14454
2050.0,0.14451
2055.0,0.14446
2060.0,0.14456
2065.0,0.14455
2070.0,0.14457
2075.0,0.14465
2080.0,0.14481
2085.0,0.14479
2090.0,0.14469
2095.0,0.14474
2100.0,0.14483
2105.0,0.14482
2110.0,0.14502
2115.0,0.14516
2120.0,0.14513
2125.0,0.14518
2130.0,0.14525
2135.0,0.14523
2140.0,0.14516
2145.0,0.14533
2150.0,0.1452
2155.0,0.14509
2160.0,0.14501
2165.0,0.14509
2170.0,0.14506
2175.0,0.14525
2180.0,0.14544
2185.0,0.1455
2190.0,0.14551
2195.0,0.14547
2200.0,0.14546
2205.0,0.14546
2210.0,0.14548
2215.0,0.1455
2220.0,0.14556
2225.0,0.14559
2230.0,0.1455
2235.0,0.14569
2240.0,0.14586
2245.0,0.14585
2250.0,0.14584
2255.0,0.14589
2260.0,0.14585
2265.0,0.14585
2270.0,0.14585
2275.0,0.14591
2280.0,0.14598
2285.0,0.14598
2290.0,0.146
2295.0,0.14607
2300.0,0.14613
2305.0,0.14619
2310.0,0.14623
2315.0,0.14618
2320.0,0.14622
2325.0,0.14637
2330.0,0.14644
2335.0,0.1465
2340.0,0.14664
2345.0,0.14678
2350.0,0.1466
2355.0,0.14647
2360.0,0.14634
2365.0,0.14627
2370.0,0.14611
2375.0,0.14609
2380.0,0.14617
2385.0,0.14624
2390.0,0.1462
2395.0,0.14622
2400.0,0.14621
2405.0,0.14629
2410.0,0.14626
2415.0,0.14609
2420.0,0.14611
2425.0,0.14611
2430.0,0.14601
2435.0,0.14609
2440.0,0.14637
2445.0,0.14633
2450.0,0.14654
2455.0,0.1466
2460.0,0.14675
2465.0,0.14667
2470.0,0.147
2475.0,0.14696
2480.0,0.14707
2485.0,0.14704
2490.0,0.1473
2495.0,0.14728
2500.0,0.14743
2505.0,0.14768
2510.0,0.1477
2515.0,0.14781
2520.0,0.14821
2525.0,0.14795
2530.0,0.14784
2535.0,0.14822
2540.0,0.14837
2545.0,0.14836
2550.0,0.14799
2555.0,0.1479
2560.0,0.1484
2565.0,0.14793
2570.0,0.14809
2575.0,0.14843
2580.0,0.14864
2585.0,0.14816
2590.0,0.14847
2595.0,0.14819
2600.0,0.14837
