Database of Origin,University of Winnipeg Spectrophotometer Facility
Sample Description,Carbonaceous chondrites - RELAB archive 7. Ungrouped chondrites and ATCCs
Other Information,spun MT-TXH-024/C1MT24 c1mt24
Date Added,2018-07-23 23:45:03.569828

Data ID,RLA_MET_38_9        
Sample ID,Tagish Lake
Mineral Name,Tagish Lake
Grain Size,heated at 100C 1 week oxygen eater
Viewing Geometry,30/0
Material Class,C2-unique

Wavelength
305.0,0.01541
310.0,0.0159
315.0,0.01619
320.0,0.01638
325.0,0.01641
330.0,0.01666
335.0,0.01663
340.0,0.01701
345.0,0.01734
350.0,0.01773
355.0,0.01795
360.0,0.01817
365.0,0.01826
370.0,0.01836
375.0,0.01841
380.0,0.01845
385.0,0.01864
390.0,0.01885
395.0,0.01901
400.0,0.01917
405.0,0.01933
410.0,0.01934
415.0,0.01943
420.0,0.01956
425.0,0.01967
430.0,0.01972
435.0,0.01986
440.0,0.02
445.0,0.02013
450.0,0.0202
455.0,0.02028
460.0,0.02037
465.0,0.02049
470.0,0.02061
475.0,0.02064
480.0,0.0208
485.0,0.0209
490.0,0.02105
495.0,0.02118
500.0,0.02128
505.0,0.02141
510.0,0.02154
515.0,0.0217
520.0,0.02177
525.0,0.02197
530.0,0.02209
535.0,0.02226
540.0,0.02238
545.0,0.02254
550.0,0.0226
555.0,0.02273
560.0,0.02283
565.0,0.02291
570.0,0.02299
575.0,0.02306
580.0,0.02316
585.0,0.02329
590.0,0.02337
595.0,0.02346
600.0,0.02356
605.0,0.02368
610.0,0.02384
615.0,0.02398
620.0,0.0241
625.0,0.02424
630.0,0.02434
635.0,0.02449
640.0,0.02461
645.0,0.02473
650.0,0.02478
655.0,0.02484
660.0,0.02495
665.0,0.02499
670.0,0.02505
675.0,0.02511
680.0,0.02519
685.0,0.02522
690.0,0.02529
695.0,0.0254
700.0,0.02548
705.0,0.02556
710.0,0.02567
715.0,0.02574
720.0,0.02585
725.0,0.02597
730.0,0.02611
735.0,0.02617
740.0,0.02628
745.0,0.02636
750.0,0.0265
755.0,0.02658
760.0,0.02666
765.0,0.02676
770.0,0.0269
775.0,0.027
780.0,0.02713
785.0,0.02719
790.0,0.02735
795.0,0.02743
800.0,0.02762
805.0,0.02777
810.0,0.02787
815.0,0.02792
820.0,0.02796
825.0,0.0281
830.0,0.02815
835.0,0.02826
840.0,0.02839
845.0,0.02853
850.0,0.02858
855.0,0.02871
860.0,0.02882
865.0,0.02884
870.0,0.02888
875.0,0.02899
880.0,0.02903
885.0,0.02914
890.0,0.02929
895.0,0.02936
900.0,0.0294
905.0,0.02948
910.0,0.02958
915.0,0.02962
920.0,0.02972
925.0,0.02983
930.0,0.0299
935.0,0.02994
940.0,0.03004
945.0,0.03012
950.0,0.03012
955.0,0.03019
960.0,0.03025
965.0,0.03034
970.0,0.03039
975.0,0.03051
980.0,0.03062
985.0,0.03078
990.0,0.03084
995.0,0.03089
1000.0,0.03098
1005.0,0.03105
1010.0,0.03106
1015.0,0.03114
1020.0,0.03129
1025.0,0.03142
1030.0,0.03152
1035.0,0.03162
1040.0,0.03171
1045.0,0.03173
1050.0,0.03171
1055.0,0.03178
1060.0,0.0318
1065.0,0.03186
1070.0,0.03193
1075.0,0.03203
1080.0,0.03203
1085.0,0.03211
1090.0,0.03215
1095.0,0.0322
1100.0,0.03228
1105.0,0.03236
1110.0,0.03245
1115.0,0.03255
1120.0,0.03263
1125.0,0.03268
1130.0,0.03279
1135.0,0.03288
1140.0,0.03296
1145.0,0.03302
1150.0,0.03311
1155.0,0.03319
1160.0,0.03325
1165.0,0.0333
1170.0,0.03342
1175.0,0.03351
1180.0,0.03359
1185.0,0.03366
1190.0,0.03372
1195.0,0.0338
1200.0,0.03393
1205.0,0.03404
1210.0,0.03418
1215.0,0.03433
1220.0,0.03439
1225.0,0.03436
1230.0,0.03439
1235.0,0.0344
1240.0,0.03444
1245.0,0.0345
1250.0,0.03462
1255.0,0.03467
1260.0,0.03473
1265.0,0.03482
1270.0,0.03492
1275.0,0.03496
1280.0,0.03501
1285.0,0.0351
1290.0,0.03517
1295.0,0.03526
1300.0,0.03539
1305.0,0.03549
1310.0,0.03557
1315.0,0.03564
1320.0,0.03568
1325.0,0.03569
1330.0,0.03574
1335.0,0.03581
1340.0,0.03589
1345.0,0.036
1350.0,0.03613
1355.0,0.0362
1360.0,0.03631
1365.0,0.03642
1370.0,0.03644
1375.0,0.03651
1380.0,0.0366
1385.0,0.0367
1390.0,0.03673
1395.0,0.03683
1400.0,0.03687
1405.0,0.03694
1410.0,0.03694
1415.0,0.03702
1420.0,0.03706
1425.0,0.03712
1430.0,0.03719
1435.0,0.03727
1440.0,0.03733
1445.0,0.03741
1450.0,0.03754
1455.0,0.03762
1460.0,0.03769
1465.0,0.03775
1470.0,0.03783
1475.0,0.03784
1480.0,0.03788
1485.0,0.03795
1490.0,0.038
1495.0,0.03805
1500.0,0.03812
1505.0,0.03823
1510.0,0.03831
1515.0,0.03844
1520.0,0.03853
1525.0,0.03862
1530.0,0.03867
1535.0,0.03876
1540.0,0.03882
1545.0,0.03885
1550.0,0.03891
1555.0,0.03895
1560.0,0.03901
1565.0,0.03909
1570.0,0.03918
1575.0,0.03923
1580.0,0.03928
1585.0,0.03937
1590.0,0.03944
1595.0,0.0395
1600.0,0.03957
1605.0,0.03964
1610.0,0.03968
1615.0,0.0397
1620.0,0.03975
1625.0,0.03975
1630.0,0.03983
1635.0,0.03987
1640.0,0.03995
1645.0,0.04001
1650.0,0.04007
1655.0,0.04011
1660.0,0.04017
1665.0,0.04016
1670.0,0.04023
1675.0,0.04031
1680.0,0.04035
1685.0,0.04039
1690.0,0.04043
1695.0,0.04052
1700.0,0.0405
1705.0,0.04057
1710.0,0.04059
1715.0,0.04061
1720.0,0.04064
1725.0,0.04071
1730.0,0.04074
1735.0,0.04081
1740.0,0.04088
1745.0,0.04088
1750.0,0.04091
1755.0,0.04093
1760.0,0.04095
1765.0,0.04096
1770.0,0.04101
1775.0,0.0411
1780.0,0.04112
1785.0,0.04111
1790.0,0.04116
1795.0,0.04117
1800.0,0.04119
1805.0,0.04125
1810.0,0.04134
1815.0,0.04143
1820.0,0.04149
1825.0,0.04154
1830.0,0.04155
1835.0,0.04159
1840.0,0.04156
1845.0,0.04156
1850.0,0.04159
1855.0,0.04163
1860.0,0.04162
1865.0,0.04165
1870.0,0.04173
1875.0,0.04175
1880.0,0.0418
1885.0,0.04181
1890.0,0.04183
1895.0,0.0418
1900.0,0.04182
1905.0,0.04177
1910.0,0.04177
1915.0,0.04178
1920.0,0.0418
1925.0,0.04184
1930.0,0.04191
1935.0,0.04205
1940.0,0.04207
1945.0,0.04204
1950.0,0.04204
1955.0,0.04199
1960.0,0.04195
1965.0,0.04195
1970.0,0.04199
1975.0,0.042
1980.0,0.04212
1985.0,0.04209
1990.0,0.04215
1995.0,0.04215
2000.0,0.0422
2005.0,0.04219
2010.0,0.04227
2015.0,0.04232
2020.0,0.04241
2025.0,0.04241
2030.0,0.04242
2035.0,0.0424
2040.0,0.04244
2045.0,0.04246
2050.0,0.04281
2055.0,0.04275
2060.0,0.04272
2065.0,0.04276
2070.0,0.04283
2075.0,0.04285
2080.0,0.04292
2085.0,0.04297
2090.0,0.04299
2095.0,0.04301
2100.0,0.04302
2105.0,0.04308
2110.0,0.04308
2115.0,0.04309
2120.0,0.04312
2125.0,0.04318
2130.0,0.04318
2135.0,0.04323
2140.0,0.04327
2145.0,0.04323
2150.0,0.0432
2155.0,0.04322
2160.0,0.04325
2165.0,0.04327
2170.0,0.04334
2175.0,0.04338
2180.0,0.04342
2185.0,0.04351
2190.0,0.04364
2195.0,0.04368
2200.0,0.04371
2205.0,0.0437
2210.0,0.04366
2215.0,0.0436
2220.0,0.04358
2225.0,0.0436
2230.0,0.04364
2235.0,0.04362
2240.0,0.04363
2245.0,0.0437
2250.0,0.04368
2255.0,0.04372
2260.0,0.04373
2265.0,0.04378
2270.0,0.04376
2275.0,0.0438
2280.0,0.04377
2285.0,0.04384
2290.0,0.04387
2295.0,0.04393
2300.0,0.04397
2305.0,0.04395
2310.0,0.04394
2315.0,0.04393
2320.0,0.04392
2325.0,0.04387
2330.0,0.04387
2335.0,0.04396
2340.0,0.04396
2345.0,0.04402
2350.0,0.04408
2355.0,0.04409
2360.0,0.04402
2365.0,0.04405
2370.0,0.04404
2375.0,0.04403
2380.0,0.04401
2385.0,0.04402
2390.0,0.04402
2395.0,0.04404
2400.0,0.04407
2405.0,0.04413
2410.0,0.04424
2415.0,0.04425
2420.0,0.04429
2425.0,0.04424
2430.0,0.04421
2435.0,0.0443
2440.0,0.04424
2445.0,0.04425
2450.0,0.04423
2455.0,0.04424
2460.0,0.0442
2465.0,0.04419
2470.0,0.04415
2475.0,0.04417
2480.0,0.04415
2485.0,0.04416
2490.0,0.0442
2495.0,0.04424
2500.0,0.04425
2505.0,0.04431
2510.0,0.04432
2515.0,0.04423
2520.0,0.04425
2525.0,0.04417
2530.0,0.04394
2535.0,0.04368
