Database of Origin,University of Winnipeg Spectrophotometer Facility
Sample Description,Carbonaceous chondrites - RELAB archive 8. Lab-heated carbonaceous chondrites
Other Information,Heated Ivuna 600C ncmp18D
Date Added,2018-07-23 23:45:04.498407

Data ID,RLA_MET_40_5        
Sample ID,Ivuna
Mineral Name,Ivuna
Viewing Geometry,30/0/ 30
Resolution,5/ 0.6-129 nm
Material Class,CI1

Wavelength
305.0,0.022015
310.0,0.022097
315.0,0.022974
320.0,0.022272
325.0,0.022344
330.0,0.021713
335.0,0.021953
340.0,0.021905
345.0,0.022016
350.0,0.021544
355.0,0.021296
360.0,0.021385
365.0,0.021281
370.0,0.020741
375.0,0.021094
380.0,0.02089
385.0,0.020887
390.0,0.021042
395.0,0.020844
400.0,0.021134
405.0,0.020977
410.0,0.020819
415.0,0.02072
420.0,0.020919
425.0,0.021007
430.0,0.020938
435.0,0.020898
440.0,0.021009
445.0,0.02097
450.0,0.020988
455.0,0.020982
460.0,0.021043
465.0,0.021031
470.0,0.020991
475.0,0.02099
480.0,0.021047
485.0,0.021069
490.0,0.02114
495.0,0.021319
500.0,0.021364
505.0,0.021421
510.0,0.021416
515.0,0.021447
520.0,0.021469
525.0,0.021559
530.0,0.021615
535.0,0.021859
540.0,0.021861
545.0,0.021909
550.0,0.021907
555.0,0.021947
560.0,0.022001
565.0,0.022052
570.0,0.022057
575.0,0.022059
580.0,0.022073
585.0,0.022131
590.0,0.02219
595.0,0.022093
600.0,0.022094
605.0,0.022136
610.0,0.022237
615.0,0.022284
620.0,0.022368
625.0,0.022412
630.0,0.022477
635.0,0.022515
640.0,0.022558
645.0,0.022643
650.0,0.022717
655.0,0.022753
660.0,0.022641
665.0,0.022715
670.0,0.02253
675.0,0.022584
680.0,0.022609
685.0,0.022455
690.0,0.022502
695.0,0.022472
700.0,0.022546
705.0,0.022461
710.0,0.022436
715.0,0.022423
720.0,0.022433
725.0,0.022309
730.0,0.022334
735.0,0.022406
740.0,0.022395
745.0,0.022359
750.0,0.022488
755.0,0.022317
760.0,0.022315
765.0,0.022231
770.0,0.022133
775.0,0.022178
780.0,0.022202
785.0,0.022196
790.0,0.022179
795.0,0.022217
800.0,0.022212
805.0,0.022258
810.0,0.022274
815.0,0.022174
820.0,0.021962
825.0,0.022002
830.0,0.02199
835.0,0.02204
840.0,0.02198
845.0,0.021997
850.0,0.022085
855.0,0.022034
860.0,0.021972
865.0,0.021791
870.0,0.02206
875.0,0.022054
880.0,0.021895
885.0,0.022023
890.0,0.022002
895.0,0.021973
900.0,0.021875
905.0,0.021949
910.0,0.021836
915.0,0.021806
920.0,0.021849
925.0,0.021821
930.0,0.021665
935.0,0.021834
940.0,0.02196
945.0,0.021884
950.0,0.021722
955.0,0.021741
960.0,0.021688
965.0,0.021806
970.0,0.021743
975.0,0.021717
980.0,0.02184
985.0,0.021788
990.0,0.021732
995.0,0.021702
1000.0,0.021667
1005.0,0.021671
1010.0,0.021718
1015.0,0.021697
1020.0,0.021679
1025.0,0.021656
1030.0,0.021663
1035.0,0.021676
1040.0,0.021684
1045.0,0.021724
1050.0,0.021681
1055.0,0.021609
1060.0,0.021622
1065.0,0.021609
1070.0,0.021523
1075.0,0.021505
1080.0,0.021512
1085.0,0.021561
1090.0,0.021474
1095.0,0.021551
1100.0,0.021472
1105.0,0.0214
1110.0,0.021377
1115.0,0.021381
1120.0,0.021325
1125.0,0.021265
1130.0,0.021346
1135.0,0.021432
1140.0,0.021432
1145.0,0.021336
1150.0,0.021249
1155.0,0.021377
1160.0,0.021402
1165.0,0.02141
1170.0,0.02136
1175.0,0.021395
1180.0,0.021407
1185.0,0.021341
1190.0,0.021316
1195.0,0.021354
1200.0,0.021307
1205.0,0.021323
1210.0,0.021452
1215.0,0.021537
1220.0,0.021475
1225.0,0.021374
1230.0,0.021381
1235.0,0.02132
1240.0,0.021333
1245.0,0.021192
1250.0,0.021193
1255.0,0.021245
1260.0,0.021112
1265.0,0.021073
1270.0,0.02109
1275.0,0.021151
1280.0,0.021175
1285.0,0.021135
1290.0,0.0211
1295.0,0.021164
1300.0,0.021185
1305.0,0.021194
1310.0,0.02117
1315.0,0.021148
1320.0,0.021172
1325.0,0.02116
1330.0,0.021218
1335.0,0.021185
1340.0,0.021142
1345.0,0.021049
1350.0,0.021046
1355.0,0.021117
1360.0,0.021041
1365.0,0.021163
1370.0,0.021161
1375.0,0.02115
1380.0,0.021094
1385.0,0.021216
1390.0,0.021245
1395.0,0.021184
1400.0,0.021171
1405.0,0.021309
1410.0,0.021432
1415.0,0.021402
1420.0,0.021437
1425.0,0.021478
1430.0,0.021452
1435.0,0.021494
1440.0,0.021487
1445.0,0.021542
1450.0,0.021582
1455.0,0.021594
1460.0,0.021566
1465.0,0.021568
1470.0,0.021584
1475.0,0.021611
1480.0,0.021645
1485.0,0.021683
1490.0,0.021619
1495.0,0.021703
1500.0,0.021732
1505.0,0.021758
1510.0,0.021758
1515.0,0.021864
1520.0,0.021866
1525.0,0.021897
1530.0,0.021874
1535.0,0.021964
1540.0,0.022048
1545.0,0.022056
1550.0,0.022027
1555.0,0.02204
1560.0,0.022076
1565.0,0.02213
1570.0,0.022131
1575.0,0.022198
1580.0,0.022137
1585.0,0.022141
1590.0,0.022104
1595.0,0.022041
1600.0,0.022054
1605.0,0.022035
1610.0,0.022054
1615.0,0.022081
1620.0,0.022062
1625.0,0.022043
1630.0,0.02205
1635.0,0.022081
1640.0,0.022069
1645.0,0.022035
1650.0,0.022073
1655.0,0.022067
1660.0,0.022077
1665.0,0.022059
1670.0,0.022063
1675.0,0.022117
1680.0,0.022103
1685.0,0.022102
1690.0,0.022202
1695.0,0.022111
1700.0,0.022259
1705.0,0.022168
1710.0,0.022279
1715.0,0.022302
1720.0,0.022323
1725.0,0.022351
1730.0,0.022398
1735.0,0.022345
1740.0,0.022355
1745.0,0.022331
1750.0,0.022402
1755.0,0.022305
1760.0,0.022274
1765.0,0.022316
1770.0,0.022332
1775.0,0.022259
1780.0,0.022351
1785.0,0.022362
1790.0,0.022338
1795.0,0.022451
1800.0,0.022339
1805.0,0.022266
1810.0,0.022322
1815.0,0.022363
1820.0,0.02223
1825.0,0.022363
1830.0,0.022317
1835.0,0.022355
1840.0,0.022298
1845.0,0.022301
1850.0,0.022361
1855.0,0.022362
1860.0,0.022444
1865.0,0.022424
1870.0,0.022362
1875.0,0.022375
1880.0,0.022443
1885.0,0.022294
1890.0,0.02238
1895.0,0.022351
1900.0,0.022324
1905.0,0.022406
1910.0,0.022327
1915.0,0.022327
1920.0,0.022295
1925.0,0.022411
1930.0,0.022347
1935.0,0.022327
1940.0,0.022417
1945.0,0.022507
1950.0,0.022524
1955.0,0.022536
1960.0,0.022443
1965.0,0.02245
1970.0,0.022467
1975.0,0.022555
1980.0,0.022421
1985.0,0.022485
1990.0,0.022469
1995.0,0.022512
2000.0,0.022547
2005.0,0.022518
2010.0,0.022608
2015.0,0.022717
2020.0,0.022585
2025.0,0.022629
2030.0,0.022584
2035.0,0.022585
2040.0,0.022559
2045.0,0.022594
2050.0,0.022641
2055.0,0.022731
2060.0,0.022731
2065.0,0.022685
2070.0,0.022588
2075.0,0.022548
2080.0,0.022596
2085.0,0.022776
2090.0,0.022714
2095.0,0.022646
2100.0,0.022843
2105.0,0.022778
2110.0,0.022789
2115.0,0.022837
2120.0,0.02295
2125.0,0.022945
2130.0,0.022903
2135.0,0.02299
2140.0,0.022839
2145.0,0.02289
2150.0,0.022834
2155.0,0.022924
2160.0,0.022823
2165.0,0.022928
2170.0,0.022913
2175.0,0.022939
2180.0,0.023114
2185.0,0.023075
2190.0,0.023111
2195.0,0.023179
2200.0,0.02319
2205.0,0.023306
2210.0,0.023203
2215.0,0.023221
2220.0,0.023139
2225.0,0.023131
2230.0,0.023224
2235.0,0.023287
2240.0,0.023283
2245.0,0.02316
2250.0,0.023283
2255.0,0.023228
2260.0,0.023274
2265.0,0.023298
2270.0,0.023315
2275.0,0.023213
2280.0,0.023359
2285.0,0.023505
2290.0,0.023343
2295.0,0.023359
2300.0,0.023437
2305.0,0.023371
2310.0,0.02346
2315.0,0.023378
2320.0,0.023576
2325.0,0.023406
2330.0,0.023418
2335.0,0.023526
2340.0,0.023448
2345.0,0.023437
2350.0,0.023402
2355.0,0.023481
2360.0,0.023564
2365.0,0.023644
2370.0,0.023672
2375.0,0.023665
2380.0,0.02367
2385.0,0.023706
2390.0,0.023757
2395.0,0.023722
2400.0,0.023752
2405.0,0.023731
2410.0,0.023798
2415.0,0.02396
2420.0,0.023836
2425.0,0.023989
2430.0,0.023975
2435.0,0.023925
2440.0,0.023911
2445.0,0.023883
2450.0,0.023894
2455.0,0.023899
2460.0,0.023837
2465.0,0.023866
2470.0,0.023872
2475.0,0.024075
2480.0,0.024078
2485.0,0.024054
2490.0,0.024083
2495.0,0.024102
2500.0,0.024099
2502.0,0.02409
2503.2,0.024112
2504.41,0.024107
2505.62,0.024153
2506.83,0.024208
2508.05,0.024052
2509.26,0.024086
2510.48,0.024162
2511.69,0.02414
2512.91,0.024133
2514.13,0.024145
2515.35,0.024129
2516.57,0.02415
2517.79,0.024252
2519.02,0.024288
2520.24,0.024263
2521.47,0.024333
2522.69,0.024267
2523.92,0.024165
2525.15,0.024051
2526.38,0.024135
2527.61,0.024328
2528.85,0.024358
2530.08,0.024208
2531.32,0.024207
2532.55,0.0243
2533.79,0.024334
2535.03,0.0243
2536.27,0.024297
2537.51,0.024343
2538.75,0.02434
2540.0,0.024334
2541.24,0.024381
2542.49,0.024329
2543.74,0.024403
2544.99,0.024564
2546.24,0.024501
2547.49,0.024355
2548.74,0.024415
2549.99,0.024572
2551.25,0.024537
2552.5,0.0245
2553.76,0.024441
2555.02,0.024497
2556.28,0.024487
2557.54,0.024387
2558.8,0.024382
2560.07,0.024444
2561.33,0.024495
2562.6,0.024505
2563.86,0.024492
2565.13,0.02453
2566.4,0.024631
2567.67,0.024634
2568.95,0.024524
2570.22,0.024463
2571.5,0.024583
2572.77,0.02459
2574.05,0.024554
2575.33,0.02453
2576.61,0.024654
2577.89,0.024599
2579.17,0.024488
2580.46,0.024567
2581.74,0.024668
2583.03,0.024746
2584.31,0.024664
2585.6,0.024689
2586.89,0.024766
2588.19,0.024693
2589.48,0.024673
2590.77,0.024681
2592.07,0.024833
2593.36,0.024857
2594.66,0.024799
2595.96,0.024798
2597.26,0.024769
2598.56,0.024783
2599.87,0.024832
2601.17,0.024894
2602.48,0.024845
2603.78,0.02477
2605.09,0.02465
2606.4,0.024668
2607.71,0.024745
2609.03,0.024815
2610.34,0.024874
2611.66,0.02479
2612.97,0.024715
2614.29,0.024747
2615.61,0.024761
2616.93,0.024647
2618.25,0.024694
2619.57,0.024881
2620.9,0.024925
2622.22,0.02491
2623.55,0.024934
2624.88,0.024971
2626.21,0.024994
2627.54,0.025022
2628.87,0.025025
2630.21,0.025
2631.54,0.024953
2632.88,0.02502
2634.21,0.025032
2635.55,0.025026
2636.89,0.025009
2638.24,0.024986
2639.58,0.024994
2640.92,0.024972
2642.27,0.024987
2643.62,0.025016
2644.97,0.025079
2646.32,0.025045
2647.67,0.024984
2649.02,0.025055
2650.38,0.025005
2651.73,0.024938
2653.09,0.024997
2654.45,0.025105
2655.81,0.025218
2657.17,0.025173
2658.53,0.025179
2659.89,0.025187
2661.26,0.025097
2662.63,0.025048
2664.0,0.025024
2665.36,0.024992
2666.74,0.024986
2668.11,0.025039
2669.48,0.025073
2670.86,0.025094
2672.23,0.025132
2673.61,0.0251
2674.99,0.024971
2676.37,0.024986
2677.76,0.025042
2679.14,0.025013
2680.52,0.024911
2681.91,0.024915
2683.3,0.02485
2684.69,0.024715
2686.08,0.024732
2687.47,0.024755
2688.87,0.024733
2690.26,0.024641
2691.66,0.024525
2693.06,0.024546
2694.46,0.024482
2695.86,0.024323
2697.26,0.02429
2698.66,0.02418
2700.07,0.024044
2701.48,0.02405
2702.89,0.02407
2704.3,0.024048
2705.71,0.023928
2707.12,0.023918
2708.53,0.02392
2709.95,0.023782
2711.37,0.023633
2712.79,0.023645
2714.21,0.023675
2715.63,0.023587
2717.05,0.02334
2718.48,0.023123
2719.9,0.022989
2721.33,0.02287
2722.76,0.022904
2724.19,0.023007
2725.62,0.023129
2727.06,0.023227
2728.49,0.02336
2729.93,0.023526
2731.37,0.023573
2732.81,0.023457
2734.25,0.023435
2735.69,0.023431
2737.14,0.02358
2738.58,0.02368
2740.03,0.02364
2741.48,0.023681
2742.93,0.023767
2744.38,0.023758
2745.83,0.023655
2747.29,0.023594
2748.75,0.023664
2750.2,0.02377
2751.66,0.023709
2753.13,0.023614
2754.59,0.023677
2756.05,0.023753
2757.52,0.023702
2758.99,0.023703
2760.46,0.023616
2761.93,0.023571
2763.4,0.023519
2764.87,0.023457
2766.35,0.023474
2767.82,0.023513
2769.3,0.023492
2770.78,0.023452
2772.26,0.023426
2773.75,0.023455
2775.23,0.023412
2776.72,0.023352
2778.21,0.023379
2779.7,0.0235
2781.19,0.023498
2782.68,0.023377
2784.18,0.023304
2785.67,0.023342
2787.17,0.023353
2788.67,0.023386
2790.17,0.023398
2791.67,0.023383
2793.18,0.023415
2794.68,0.023339
2796.19,0.023162
2797.7,0.023225
2799.21,0.023331
2800.72,0.023312
2802.24,0.023262
2803.75,0.023088
2805.27,0.023074
2806.79,0.023154
2808.31,0.023171
2809.83,0.023132
2811.35,0.023098
2812.88,0.023085
2814.41,0.023069
2815.93,0.02312
2817.46,0.023278
2819.0,0.023299
2820.53,0.023132
2822.07,0.023043
2823.6,0.023086
2825.14,0.022987
2826.68,0.022952
2828.22,0.022981
2829.77,0.023022
2831.31,0.022986
2832.86,0.022961
2834.41,0.022972
2835.96,0.022988
2837.51,0.022989
2839.07,0.022976
2840.62,0.023077
2842.18,0.023079
2843.74,0.023037
2845.3,0.023075
2846.86,0.022987
2848.43,0.02288
2849.99,0.022957
2851.56,0.022954
2853.13,0.022917
2854.7,0.023025
2856.27,0.023054
2857.85,0.022954
2859.42,0.022909
2861.0,0.022958
2862.58,0.023034
2864.16,0.02308
2865.75,0.023071
2867.33,0.023012
2868.92,0.023084
2870.51,0.023107
2872.1,0.023034
2873.69,0.023004
2875.28,0.023073
2876.88,0.023126
2878.48,0.023111
2880.07,0.023062
2881.68,0.023087
2883.28,0.023153
2884.88,0.023122
2886.49,0.02308
2888.1,0.023034
2889.71,0.022999
2891.32,0.022995
2892.93,0.02307
2894.55,0.02313
2896.16,0.023134
2897.78,0.02307
2899.4,0.023043
2901.03,0.023056
2902.65,0.023143
2904.28,0.023227
2905.91,0.023229
2907.54,0.023212
2909.17,0.023217
2910.8,0.023244
2912.44,0.023232
2914.07,0.0232
2915.71,0.023288
2917.35,0.023331
2918.99,0.023262
2920.64,0.023175
2922.29,0.023192
2923.93,0.023261
2925.58,0.023281
2927.24,0.0233
2928.89,0.023295
2930.55,0.023256
2932.2,0.02331
2933.86,0.023389
2935.52,0.023337
2937.19,0.023355
2938.85,0.023378
2940.52,0.023383
2942.19,0.023389
2943.86,0.023411
2945.53,0.023444
2947.21,0.023471
2948.88,0.023512
2950.56,0.023568
2952.24,0.023562
2953.92,0.023516
2955.61,0.023506
2957.29,0.023546
2958.98,0.023576
2960.67,0.023547
2962.36,0.023597
2964.06,0.02357
2965.75,0.023538
2967.45,0.023653
2969.15,0.023729
2970.85,0.023707
2972.55,0.023624
2974.26,0.023595
2975.97,0.023582
2977.68,0.023576
2979.39,0.023665
2981.1,0.023709
2982.82,0.023674
2984.53,0.023731
2986.25,0.023746
2987.97,0.023714
2989.7,0.023744
2991.42,0.023753
2993.15,0.023761
2994.88,0.023827
2996.61,0.023778
2998.34,0.02371
3000.08,0.023745
3001.82,0.023817
3003.55,0.023888
3005.3,0.023982
3007.04,0.024018
3008.78,0.023973
3010.53,0.023969
3012.28,0.024021
3014.03,0.024008
3015.79,0.02393
3017.54,0.0239
3019.3,0.023895
3021.06,0.023971
3022.82,0.024091
3024.58,0.024087
3026.35,0.02412
3028.12,0.024076
3029.89,0.024029
3031.66,0.024022
3033.43,0.02407
3035.21,0.024073
3036.99,0.024085
3038.77,0.024099
3040.55,0.024086
3042.33,0.024093
3044.12,0.024113
3045.91,0.024192
3047.7,0.024236
3049.49,0.024242
3051.29,0.02424
3053.08,0.024255
3054.88,0.024331
3056.68,0.024334
3058.49,0.024329
3060.29,0.024297
3062.1,0.024304
3063.91,0.024347
3065.72,0.024325
3067.54,0.024394
3069.35,0.024432
3071.17,0.02443
3072.99,0.024461
3074.81,0.024461
3076.64,0.024476
3078.47,0.024486
3080.29,0.024526
3082.13,0.024578
3083.96,0.024543
3085.79,0.024503
3087.63,0.024546
3089.47,0.024626
3091.31,0.024616
3093.16,0.024572
3095.01,0.024601
3096.85,0.024666
3098.71,0.02469
3100.56,0.024745
3102.41,0.024819
3104.27,0.02481
3106.13,0.024748
3107.99,0.024753
3109.86,0.024803
3111.73,0.024831
3113.59,0.024827
3115.47,0.024875
3117.34,0.024962
3119.21,0.024989
3121.09,0.024978
3122.97,0.024978
3124.86,0.024971
3126.74,0.025008
3128.63,0.02511
3130.52,0.025175
3132.41,0.025173
3134.3,0.025153
3136.2,0.025097
3138.1,0.025116
3140.0,0.025191
3141.9,0.025293
3143.81,0.025345
3145.71,0.025349
3147.62,0.025294
3149.54,0.025349
3151.45,0.025462
3153.37,0.025474
3155.29,0.02544
3157.21,0.025435
3159.13,0.025421
3161.06,0.025457
3162.99,0.02556
3164.92,0.025626
3166.85,0.025561
3168.79,0.02556
3170.72,0.02559
3172.67,0.025619
3174.61,0.025647
3176.55,0.025748
3178.5,0.025801
3180.45,0.025777
3182.4,0.025751
3184.36,0.025772
3186.32,0.025795
3188.27,0.025821
3190.24,0.025904
3192.2,0.025996
3194.17,0.026031
3196.14,0.025993
3198.11,0.026042
3200.08,0.026094
3202.06,0.026087
3204.04,0.026097
3206.02,0.026156
3208.0,0.026205
3209.99,0.026237
3211.98,0.026201
3213.97,0.026231
3215.96,0.026301
3217.96,0.026293
3219.96,0.026254
3221.96,0.02631
3223.96,0.026361
3225.97,0.026365
3227.98,0.026428
3229.99,0.026445
3232.0,0.026431
3234.02,0.026455
3236.04,0.026449
3238.06,0.02644
3240.08,0.026504
3242.11,0.026541
3244.14,0.026588
3246.17,0.026561
3248.2,0.026582
3250.24,0.026633
3252.28,0.026697
3254.32,0.026662
3256.37,0.026598
3258.41,0.026635
3260.46,0.026683
3262.51,0.026707
3264.57,0.026773
3266.63,0.026825
3268.69,0.026836
3270.75,0.026812
3272.81,0.026825
3274.88,0.026867
3276.95,0.026908
3279.02,0.026915
3281.1,0.026934
3283.18,0.026959
3285.26,0.026985
3287.34,0.026979
3289.43,0.026998
3291.51,0.027067
3293.61,0.027066
3295.7,0.027018
3297.8,0.027095
3299.9,0.027136
3302.0,0.027162
3304.1,0.027184
3306.21,0.027214
3308.32,0.027228
3310.43,0.027228
3312.55,0.027243
3314.66,0.027295
3316.79,0.027373
3318.91,0.027397
3321.03,0.02736
3323.16,0.027384
3325.29,0.027415
3327.43,0.027399
3329.57,0.02743
3331.71,0.027424
3333.85,0.02745
3335.99,0.027497
3338.14,0.027479
3340.29,0.027491
3342.45,0.02751
3344.6,0.027501
3346.76,0.027521
3348.92,0.027516
3351.09,0.027495
3353.26,0.027493
3355.43,0.027456
3357.6,0.027471
3359.78,0.027492
3361.96,0.027459
3364.14,0.027421
3366.32,0.027393
3368.51,0.02742
3370.7,0.027418
3372.89,0.027388
3375.09,0.02739
3377.29,0.027387
3379.49,0.02738
3381.69,0.027373
3383.9,0.027346
3386.11,0.027363
3388.32,0.027397
3390.54,0.027425
3392.76,0.027419
3394.98,0.027374
3397.21,0.027394
3399.43,0.027414
3401.66,0.027402
3403.9,0.027404
3406.13,0.027431
3408.37,0.027422
3410.61,0.02739
3412.86,0.027422
3415.11,0.027375
3417.36,0.027312
3419.61,0.027338
3421.87,0.027394
3424.13,0.027388
3426.39,0.027376
3428.66,0.027464
3430.93,0.027533
3433.2,0.027528
3435.48,0.027545
3437.76,0.027607
3440.04,0.027656
3442.32,0.027706
3444.61,0.027742
3446.9,0.027737
3449.19,0.027724
3451.49,0.027758
3453.79,0.027829
3456.09,0.027867
3458.4,0.027882
3460.7,0.027955
3463.02,0.028046
3465.33,0.028024
3467.65,0.027987
3469.97,0.027993
3472.29,0.028032
3474.62,0.028059
3476.95,0.028045
3479.29,0.027997
3481.62,0.027982
3483.96,0.02808
3486.3,0.028146
3488.65,0.028178
3491.0,0.028178
3493.35,0.028154
3495.71,0.028127
3498.07,0.028124
3500.43,0.028154
3502.79,0.028203
3505.16,0.028235
3507.53,0.028243
3509.91,0.028293
3512.29,0.02837
3514.67,0.028422
3517.05,0.0285
3519.44,0.028567
3521.83,0.028579
3524.23,0.028614
3526.62,0.028693
3529.02,0.028773
3531.43,0.028843
3533.83,0.028889
3536.24,0.028844
3538.66,0.02884
3541.08,0.028922
3543.5,0.028983
3545.92,0.029033
3548.35,0.029093
3550.78,0.029101
3553.21,0.029115
3555.65,0.029194
3558.09,0.029191
3560.53,0.029173
3562.98,0.029207
3565.43,0.02921
3567.88,0.029274
3570.34,0.029335
3572.8,0.029308
3575.27,0.029277
3577.73,0.029292
3580.2,0.029316
3582.68,0.029339
3585.16,0.029371
3587.64,0.029393
3590.12,0.029416
3592.61,0.029418
3595.1,0.0295
3597.6,0.029523
3600.09,0.029514
3602.6,0.029534
3605.1,0.02953
3607.61,0.029542
3610.12,0.029613
3612.64,0.029632
3615.16,0.029601
3617.68,0.029592
3620.21,0.029627
3622.74,0.029683
3625.27,0.029697
3627.81,0.029735
3630.35,0.029746
3632.89,0.029737
3635.44,0.029748
3637.99,0.029776
3640.54,0.029843
3643.1,0.029868
3645.66,0.029857
3648.23,0.029834
3650.8,0.02979
3653.37,0.029811
3655.95,0.029871
3658.53,0.029929
3661.11,0.029937
3663.7,0.029949
3666.29,0.029992
3668.89,0.029991
3671.48,0.030004
3674.09,0.03005
3676.69,0.030077
3679.3,0.030084
3681.91,0.030086
3684.53,0.03014
3687.15,0.030156
3689.78,0.030132
3692.4,0.030121
3695.04,0.030129
3697.67,0.030156
3700.31,0.030189
3702.95,0.030231
3705.6,0.030242
3708.25,0.030241
3710.91,0.03026
3713.56,0.030313
3716.23,0.030336
3718.89,0.030309
3721.56,0.030282
3724.23,0.030346
3726.91,0.030399
3729.59,0.03041
3732.28,0.030438
3734.97,0.030463
3737.66,0.030454
3740.36,0.030466
3743.06,0.030502
3745.76,0.030505
3748.47,0.030533
3751.18,0.030559
3753.9,0.030587
