Database of Origin,University of Winnipeg Spectrophotometer Facility
Sample Description,Carbonaceous chondrites - RELAB archive 2. CM chondrites
Date Added,2018-07-23 23:44:50.330173

Data ID,RLA_MET_33_50       
Sample ID,Murchison
Mineral Name,CM Chondrite
Grain Size,<125 um
Viewing Geometry,30/0
Material Class,CM2.5/2.7

Wavelength
305.0,0.030139
310.0,0.029784
315.0,0.030434
320.0,0.030395
325.0,0.031381
330.0,0.031492
335.0,0.031902
340.0,0.03276
345.0,0.033395
350.0,0.034261
355.0,0.03534
360.0,0.036192
365.0,0.037218
370.0,0.038201
375.0,0.039482
380.0,0.040572
385.0,0.041509
390.0,0.042546
395.0,0.043589
400.0,0.044568
405.0,0.045191
410.0,0.046112
415.0,0.047118
420.0,0.048052
425.0,0.049046
430.0,0.04991
435.0,0.051396
440.0,0.052183
445.0,0.053005
450.0,0.053636
455.0,0.054274
460.0,0.054742
465.0,0.055284
470.0,0.056064
475.0,0.056787
480.0,0.05741
485.0,0.058088
490.0,0.058754
495.0,0.059186
500.0,0.059778
505.0,0.060715
510.0,0.061205
515.0,0.061681
520.0,0.062156
525.0,0.062539
530.0,0.062844
535.0,0.063397
540.0,0.063624
545.0,0.06392
550.0,0.064232
555.0,0.064559
560.0,0.064757
565.0,0.064925
570.0,0.064958
575.0,0.06511
580.0,0.065066
585.0,0.065128
590.0,0.065172
595.0,0.065207
600.0,0.06504
605.0,0.065052
610.0,0.06497
615.0,0.065001
620.0,0.064906
625.0,0.064761
630.0,0.064716
635.0,0.064504
640.0,0.064346
645.0,0.064282
650.0,0.064083
655.0,0.063923
660.0,0.063564
665.0,0.063491
670.0,0.063346
675.0,0.063335
680.0,0.062995
685.0,0.063139
690.0,0.063042
695.0,0.062979
700.0,0.063019
705.0,0.062891
710.0,0.062836
715.0,0.062784
720.0,0.062985
725.0,0.062853
730.0,0.063069
735.0,0.063131
740.0,0.062884
745.0,0.063032
750.0,0.063192
755.0,0.063235
760.0,0.063884
765.0,0.064047
770.0,0.064217
775.0,0.064463
780.0,0.064807
785.0,0.064985
790.0,0.064827
795.0,0.064904
800.0,0.065151
805.0,0.065289
810.0,0.065497
815.0,0.065541
820.0,0.065806
825.0,0.065949
830.0,0.066046
835.0,0.066039
840.0,0.066117
845.0,0.066219
850.0,0.066444
855.0,0.06641
860.0,0.066279
865.0,0.066186
870.0,0.066335
875.0,0.066353
880.0,0.066271
885.0,0.066519
890.0,0.066606
895.0,0.06655
900.0,0.066643
905.0,0.06673
910.0,0.067152
915.0,0.067156
920.0,0.067029
925.0,0.067381
930.0,0.06742
935.0,0.067517
940.0,0.067662
945.0,0.067708
950.0,0.067615
955.0,0.067879
960.0,0.068248
965.0,0.068463
970.0,0.068194
975.0,0.06817
980.0,0.068518
985.0,0.068748
990.0,0.068768
995.0,0.069319
1000.0,0.06928
1005.0,0.069159
1010.0,0.069172
1015.0,0.069344
1020.0,0.069719
1025.0,0.069669
1030.0,0.069893
1035.0,0.069947
1040.0,0.070083
1045.0,0.070012
1050.0,0.070212
1055.0,0.070007
1060.0,0.070345
1065.0,0.070068
1070.0,0.070584
1075.0,0.070373
1080.0,0.07046
1085.0,0.070667
1090.0,0.070733
1095.0,0.07043
1100.0,0.070528
1105.0,0.070606
1110.0,0.070893
1115.0,0.071072
1120.0,0.07132
1125.0,0.071268
1130.0,0.071284
1135.0,0.071104
1140.0,0.07118
1145.0,0.071742
1150.0,0.071687
1155.0,0.071722
1160.0,0.072206
1165.0,0.072042
1170.0,0.072279
1175.0,0.072333
1180.0,0.07283
1185.0,0.072598
1190.0,0.072859
1195.0,0.07282
1200.0,0.073339
1205.0,0.073212
1210.0,0.073862
1215.0,0.074003
1220.0,0.074154
1225.0,0.074343
1230.0,0.074321
1235.0,0.074392
1240.0,0.074655
1245.0,0.074867
1250.0,0.075012
1255.0,0.075267
1260.0,0.075072
1265.0,0.075574
1270.0,0.075874
1275.0,0.075901
1280.0,0.075987
1285.0,0.076303
1290.0,0.076272
1295.0,0.07627
1300.0,0.076315
1305.0,0.076696
1310.0,0.076868
1315.0,0.077176
1320.0,0.077306
1325.0,0.077722
1330.0,0.077749
1335.0,0.077915
1340.0,0.078029
1345.0,0.078266
1350.0,0.078294
1355.0,0.078641
1360.0,0.078538
1365.0,0.079051
1370.0,0.079159
1375.0,0.079041
1380.0,0.079165
1385.0,0.079957
1390.0,0.080032
1395.0,0.080134
1400.0,0.080279
1405.0,0.080311
1410.0,0.080718
1415.0,0.081125
1420.0,0.081002
1425.0,0.08127
1430.0,0.081421
1435.0,0.081661
1440.0,0.0816
1445.0,0.081997
1450.0,0.082275
1455.0,0.082099
1460.0,0.082598
1465.0,0.082749
1470.0,0.083044
1475.0,0.083032
1480.0,0.083142
1485.0,0.083561
1490.0,0.083594
1495.0,0.083667
1500.0,0.083988
1505.0,0.084372
1510.0,0.084168
1515.0,0.084332
1520.0,0.084781
1525.0,0.084661
1530.0,0.084937
1535.0,0.085072
1540.0,0.085344
1545.0,0.085309
1550.0,0.08548
1555.0,0.085611
1560.0,0.085839
1565.0,0.085934
1570.0,0.085927
1575.0,0.086035
1580.0,0.086036
1585.0,0.086258
1590.0,0.0864
1595.0,0.086213
1600.0,0.08686
1605.0,0.086759
1610.0,0.086873
1615.0,0.086732
1620.0,0.086958
1625.0,0.086918
1630.0,0.087334
1635.0,0.087927
1640.0,0.087912
1645.0,0.087701
1650.0,0.087757
1655.0,0.087585
1660.0,0.087292
1665.0,0.087386
1670.0,0.087394
1675.0,0.087777
1680.0,0.08792
1685.0,0.087727
1690.0,0.087846
1695.0,0.088259
1700.0,0.087959
1705.0,0.088291
1710.0,0.088011
1715.0,0.088246
1720.0,0.088149
1725.0,0.088241
1730.0,0.088243
1735.0,0.088151
1740.0,0.088277
1745.0,0.088405
1750.0,0.088587
1755.0,0.0885
1760.0,0.088588
1765.0,0.08864
1770.0,0.088718
1775.0,0.088871
1780.0,0.088836
1785.0,0.089005
1790.0,0.089145
1795.0,0.089224
1800.0,0.08915
1805.0,0.089281
1810.0,0.089528
1815.0,0.089616
1820.0,0.089413
1825.0,0.089384
1830.0,0.089477
1835.0,0.089428
1840.0,0.089821
1845.0,0.089706
1850.0,0.089883
1855.0,0.089655
1860.0,0.089865
1865.0,0.089443
1870.0,0.090018
1875.0,0.090408
1880.0,0.09024
1885.0,0.090217
1890.0,0.090147
1895.0,0.08989
1900.0,0.089874
1905.0,0.090126
1910.0,0.090115
1915.0,0.090121
1920.0,0.090256
1925.0,0.09009
1930.0,0.090207
1935.0,0.090273
1940.0,0.0904
1945.0,0.090306
1950.0,0.090388
1955.0,0.090348
1960.0,0.090539
1965.0,0.090689
1970.0,0.090651
1975.0,0.090791
1980.0,0.090739
1985.0,0.090771
1990.0,0.090743
1995.0,0.090723
2000.0,0.090782
2005.0,0.090818
2010.0,0.09096
2015.0,0.090841
2020.0,0.090985
2025.0,0.090901
2030.0,0.090917
2035.0,0.091082
2040.0,0.090923
2045.0,0.090874
2050.0,0.091242
2055.0,0.091051
2060.0,0.090856
2065.0,0.090896
2070.0,0.090973
2075.0,0.090934
2080.0,0.091032
2085.0,0.091304
2090.0,0.09129
2095.0,0.091455
2100.0,0.09128
2105.0,0.091173
2110.0,0.091448
2115.0,0.091317
2120.0,0.091126
2125.0,0.091239
2130.0,0.091258
2135.0,0.091162
2140.0,0.091242
2145.0,0.091296
2150.0,0.091277
2155.0,0.091248
2160.0,0.091251
2165.0,0.091387
2170.0,0.091398
2175.0,0.09141
2180.0,0.091518
2185.0,0.091741
2190.0,0.091566
2195.0,0.091728
2200.0,0.09158
2205.0,0.092053
2210.0,0.091841
2215.0,0.091871
2220.0,0.091878
2225.0,0.091665
2230.0,0.091979
2235.0,0.09197
2240.0,0.091791
2245.0,0.091931
2250.0,0.091791
2255.0,0.09188
2260.0,0.09181
2265.0,0.091836
2270.0,0.091751
2275.0,0.091856
2280.0,0.091968
2285.0,0.091811
2290.0,0.091874
2295.0,0.091617
2300.0,0.091748
2305.0,0.091605
2310.0,0.091614
2315.0,0.091475
2320.0,0.091417
2325.0,0.091436
2330.0,0.091284
2335.0,0.091309
2340.0,0.091202
2345.0,0.091005
2350.0,0.090973
2355.0,0.091152
2360.0,0.090881
2365.0,0.09073
2370.0,0.090538
2375.0,0.090657
2380.0,0.090794
2385.0,0.090784
2390.0,0.090819
2395.0,0.09098
2400.0,0.090909
2405.0,0.090842
2410.0,0.090993
2415.0,0.091164
2420.0,0.091198
2425.0,0.091021
2430.0,0.091057
2435.0,0.091019
2440.0,0.090824
2445.0,0.09088
2450.0,0.090655
2455.0,0.090707
2460.0,0.090769
2465.0,0.090759
2470.0,0.090935
2475.0,0.090788
2480.0,0.090624
2485.0,0.090912
2490.0,0.090628
2495.0,0.09071
2500.0,0.090758
2505.0,0.090934
2510.0,0.090674
2515.0,0.090603
2520.0,0.090606
2525.0,0.090698
2530.0,0.091137
2535.0,0.09106
2540.0,0.090777
2545.0,0.090972
2550.0,0.09113
2555.0,0.090918
2560.0,0.09012
2565.0,0.090803
2570.0,0.090332
2575.0,0.090592
2580.0,0.090162
2585.0,0.090612
2590.0,0.09017
2595.0,0.090735
2600.0,0.090585
