Database of Origin,University of Winnipeg Spectrophotometer Facility
Sample Description,"METALS and ""IDES"" _ Nicolet spectra (from RELAB) - Carbides"
Date Added,2018-07-23 22:22:05.999544

Data ID,RLA_MTL_4_3         
Sample ID,SIC102
Mineral Name,Silicon carbide
Grain Size,Bulk
Viewing Geometry,30/30
Resolution,0.6-129
Formula,SiC
Composition,Not-extracted
Material Class,Metal/Alloy

Wavelength
1800.6721,0.096792
1801.2979,0.096613
1801.9238,0.096539
1802.5505,0.096523
1803.1774,0.096258
1803.8048,0.096196
1804.4326,0.096391
1805.061,0.096602
1805.6896,0.0961
1806.3188,0.095772
1806.9484,0.096015
1807.5785,0.096437
1808.2089,0.096601
1808.8398,0.096501
1809.4712,0.096675
1810.103,0.096509
1810.7352,0.096463
1811.3679,0.096258
1812.001,0.09577
1812.6346,0.095623
1813.2686,0.096003
1813.9031,0.096014
1814.538,0.096221
1815.1733,0.095729
1815.8092,0.095576
1816.4453,0.09611
1817.0822,0.096157
1817.7191,0.096238
1818.3568,0.096311
1818.9948,0.096442
1819.6333,0.096341
1820.2721,0.095964
1820.9116,0.09576
1821.5513,0.095943
1822.1917,0.096062
1822.8323,0.095659
1823.4735,0.095539
1824.115,0.095891
1824.7572,0.096286
1825.3997,0.095853
1826.0427,0.095673
1826.686,0.095536
1827.33,0.095521
1827.9742,0.09566
1828.6191,0.095539
1829.2643,0.095561
1829.91,0.095472
1830.5562,0.095253
1831.2028,0.095169
1831.8497,0.095168
1832.4974,0.095468
1833.1453,0.095828
1833.7938,0.095668
1834.4426,0.095504
1835.092,0.094926
1835.7418,0.09476
1836.3922,0.094797
1837.0428,0.094677
1837.6941,0.094877
1838.3458,0.095568
1838.9979,0.095405
1839.6505,0.095092
1840.3036,0.095345
1840.9572,0.094954
1841.611,0.094786
1842.2655,0.094956
1842.9204,0.095234
1843.5758,0.0954
1844.2316,0.095213
1844.8879,0.095258
1845.5447,0.095287
1846.202,0.094996
1846.8596,0.09496
1847.5179,0.094539
1848.1765,0.09428
1848.8357,0.094277
1849.4951,0.095011
1850.1553,0.095193
1850.8158,0.094635
1851.4768,0.094371
1852.1382,0.094512
1852.8003,0.094252
1853.4626,0.09447
1854.1256,0.094547
1854.7888,0.094554
1855.4528,0.094806
1856.1171,0.094534
1856.7819,0.09458
1857.4471,0.094283
1858.1129,0.094206
1858.7791,0.094534
1859.4459,0.0948
1860.1132,0.094538
1860.7808,0.094656
1861.449,0.094757
1862.1174,0.094735
1862.7866,0.095001
1863.4562,0.094893
1864.1263,0.094435
1864.7968,0.094257
1865.4679,0.093934
1866.1393,0.093938
1866.8114,0.094231
1867.4838,0.094521
1868.1569,0.094377
1868.8302,0.094206
1869.5043,0.093857
1870.1786,0.093514
1870.8535,0.093613
1871.5288,0.093687
1872.2048,0.093904
1872.8811,0.094154
1873.5581,0.094113
1874.2354,0.093575
1874.9132,0.09374
1875.5916,0.094319
1876.2704,0.094154
1876.9496,0.093956
1877.6295,0.094038
1878.3097,0.093752
1878.9906,0.09363
1879.6719,0.093483
1880.3536,0.093823
1881.0359,0.093964
1881.7188,0.093452
1882.4019,0.093296
1883.0857,0.093461
1883.7701,0.093798
1884.4547,0.093835
1885.1401,0.094026
1885.8258,0.094237
1886.5121,0.093888
1887.1987,0.093392
1887.8861,0.093071
1888.5737,0.092705
1889.2621,0.092651
1889.9508,0.093069
1890.6401,0.093612
1891.3298,0.093649
1892.0201,0.09343
1892.7108,0.093137
1893.4022,0.092871
1894.0939,0.093004
1894.7863,0.09326
1895.479,0.093481
1896.1724,0.093269
1896.8661,0.09331
1897.5604,0.093662
1898.2552,0.093406
1898.9506,0.093155
1899.6464,0.09304
1900.3428,0.093065
1901.0396,0.092802
1901.7371,0.092959
1902.4348,0.093207
1903.1333,0.093306
1903.8322,0.093179
1904.5316,0.092989
1905.2314,0.093194
1905.932,0.093372
1906.6329,0.093091
1907.3345,0.09292
1908.0365,0.093001
1908.739,0.093505
1909.4421,0.092957
1910.1455,0.092393
1910.8497,0.092503
1911.5542,0.092533
1912.2594,0.092334
1912.965,0.092088
1913.6711,0.092102
1914.3778,0.092613
1915.0851,0.092514
1915.7927,0.09217
1916.501,0.09262
1917.2097,0.093066
1917.9191,0.092853
1918.6288,0.0925
1919.3392,0.092458
1920.0499,0.092508
1920.7615,0.09249
1921.4733,0.092804
1922.1858,0.092778
1922.8987,0.09239
1923.6123,0.092068
1924.3263,0.092304
1925.0409,0.092673
1925.7559,0.092474
1926.4717,0.092429
1927.1877,0.092874
1927.9044,0.093103
1928.6216,0.092669
1929.3395,0.092175
1930.0576,0.092313
1930.7766,0.092327
1931.496,0.092284
1932.2158,0.092429
1932.9364,0.092236
1933.6572,0.091755
1934.3788,0.091837
1935.1008,0.092149
1935.8235,0.092276
1936.5465,0.092115
1937.2703,0.092161
1937.9944,0.092022
1938.7192,0.091414
1939.4445,0.091042
1940.1704,0.091413
1940.8966,0.091531
1941.6237,0.091381
1942.3511,0.091583
1943.0792,0.09179
1943.8076,0.091565
1944.5369,0.091572
1945.2664,0.091573
1945.9967,0.09168
1946.7273,0.091725
1947.4587,0.091505
1948.1906,0.091389
1948.923,0.091779
1949.6559,0.092278
1950.3894,0.09217
1951.1234,0.091763
1951.8582,0.091671
1952.5931,0.091745
1953.329,0.091463
1954.0652,0.091298
1954.8021,0.091405
1955.5393,0.09143
1956.2773,0.091521
1957.016,0.09171
1957.7549,0.091786
1958.4946,0.091527
1959.2347,0.091333
1959.9756,0.091502
1960.7167,0.091632
1961.4586,0.091322
1962.201,0.091462
1962.9441,0.091658
1963.6875,0.091657
1964.4316,0.091614
1965.1763,0.09131
1965.9216,0.091122
1966.6672,0.090977
1967.4137,0.090847
1968.1605,0.09107
1968.9082,0.091215
1969.6561,0.091475
1970.4049,0.091318
1971.1539,0.090902
1971.9038,0.090775
1972.6541,0.090716
1973.405,0.090861
1974.1565,0.090915
1974.9087,0.090806
1975.6611,0.090795
1976.4144,0.090878
1977.1681,0.090802
1977.9226,0.090819
1978.6775,0.090989
1979.433,0.090785
1980.189,0.09082
1980.9458,0.090932
1981.7029,0.090778
1982.4608,0.090859
1983.2194,0.091223
1983.9783,0.091183
1984.7379,0.090929
1985.4979,0.090743
1986.2588,0.09057
1987.0199,0.090738
1987.782,0.090909
1988.5443,0.090547
1989.3075,0.090379
1990.071,0.090741
1990.8353,0.090817
1991.6001,0.09075
1992.3656,0.090537
1993.1315,0.090042
1993.8982,0.090388
1994.6653,0.090845
1995.4331,0.090729
1996.2014,0.090662
1996.9705,0.090435
1997.7399,0.090491
1998.5101,0.090644
1999.2808,0.090487
2000.0521,0.090134
2000.824,0.090184
2001.5966,0.090231
2002.3696,0.090216
2003.1434,0.090056
2003.9176,0.089926
2004.6926,0.090188
2005.468,0.090178
2006.2443,0.089981
2007.0209,0.089964
2007.7982,0.089937
2008.576,0.089897
2009.3547,0.090105
2010.1339,0.090012
2010.9136,0.090121
2011.694,0.090139
2012.4747,0.09
2013.2565,0.089891
2014.0385,0.089815
2014.8213,0.089757
2015.6046,0.089893
2016.3887,0.090173
2017.1731,0.089782
2017.9585,0.089666
2018.7441,0.089634
2019.5306,0.089764
2020.3176,0.090109
2021.1053,0.090003
2021.8936,0.089681
2022.6825,0.089792
2023.4719,0.089872
2024.2621,0.089731
2025.0527,0.089696
2025.8441,0.089819
2026.636,0.089931
2027.4287,0.089616
2028.2218,0.089522
2029.0157,0.089672
2029.8101,0.089599
2030.6052,0.089677
2031.4008,0.089658
2032.1973,0.089585
2032.994,0.089425
2033.7917,0.089417
2034.5898,0.089478
2035.3887,0.089328
2036.1882,0.089288
2036.9883,0.089555
2037.7891,0.089542
2038.5903,0.089362
2039.3923,0.089023
2040.1948,0.089264
2040.9982,0.089334
2041.8019,0.089419
2042.6064,0.08964
2043.4115,0.089677
2044.2174,0.089305
2045.0237,0.089054
2045.8308,0.089041
2046.6384,0.089067
2047.4468,0.089042
2048.2556,0.089028
2049.0654,0.089154
2049.8755,0.089254
2050.6863,0.089088
2051.4978,0.089022
2052.3101,0.08913
2053.1228,0.089084
2053.9363,0.088939
2054.7502,0.088684
2055.5652,0.08868
2056.3804,0.088768
2057.1965,0.088606
2058.0129,0.088627
2058.8306,0.088776
2059.6484,0.088722
2060.467,0.088636
2061.2861,0.088592
2062.1062,0.088685
2062.9268,0.088886
2063.748,0.088871
2064.5701,0.088881
2065.3926,0.088887
2066.2158,0.088675
2067.0396,0.088446
2067.864,0.088559
2068.6892,0.088686
2069.5151,0.088639
2070.3416,0.088585
2071.1687,0.088636
2071.9963,0.088717
2072.825,0.088508
2073.6541,0.088123
2074.4839,0.088023
2075.3142,0.088127
2076.1455,0.088234
2076.9771,0.088427
2077.8098,0.088494
2078.6428,0.088536
2079.4766,0.088629
2080.311,0.088575
2081.1462,0.088487
2081.9819,0.088503
2082.8184,0.088547
2083.6555,0.088498
2084.4934,0.088452
2085.3318,0.08826
2086.1711,0.088089
2087.0107,0.088058
2087.8516,0.088314
2088.6926,0.088295
2089.5344,0.088367
2090.377,0.088202
2091.2202,0.087965
2092.0642,0.087983
2092.9087,0.088072
2093.7542,0.087907
2094.6001,0.087485
2095.4468,0.087761
2096.2939,0.08806
2097.1421,0.087852
2097.9907,0.087803
2098.8401,0.087903
2099.6902,0.087961
2100.541,0.08788
2101.3923,0.088137
2102.2446,0.088226
2103.0974,0.088077
2103.9509,0.08789
2104.8052,0.087845
2105.6602,0.087857
2106.5156,0.087852
2107.3721,0.087953
2108.229,0.087831
2109.0867,0.087866
2109.9451,0.088006
2110.8042,0.088255
2111.6638,0.088219
2112.5244,0.087892
2113.3855,0.087691
2114.2476,0.087465
2115.1101,0.087543
2115.9736,0.087576
2116.8374,0.08723
2117.7021,0.087323
2118.5676,0.087734
2119.4338,0.087536
2120.3005,0.087453
2121.1682,0.08743
2122.0366,0.087502
2122.9055,0.087543
2123.7751,0.087366
2124.6455,0.087359
2125.5168,0.08727
2126.3884,0.087286
2127.2612,0.087469
2128.1343,0.087479
2129.0083,0.087517
2129.8828,0.087267
2130.7585,0.087094
2131.6345,0.087214
2132.5115,0.087046
2133.3889,0.087047
2134.2673,0.086928
2135.1462,0.08682
2136.0261,0.087225
2136.9065,0.087291
2137.7878,0.087186
2138.6694,0.087166
2139.5522,0.087256
2140.4355,0.087221
2141.3198,0.08713
2142.2046,0.087188
2143.0901,0.087325
2143.9763,0.087413
2144.8635,0.087182
2145.7512,0.08712
2146.6399,0.087112
2147.5291,0.086975
2148.4189,0.086878
2149.3096,0.08701
2150.2012,0.086984
2151.0933,0.087081
2151.9863,0.086866
2152.8801,0.086741
2153.7744,0.086834
2154.6697,0.08689
2155.5654,0.086895
2156.4624,0.086873
2157.3596,0.086946
2158.2578,0.087081
2159.1567,0.087321
2160.0564,0.08721
2160.9565,0.086943
2161.8579,0.087079
2162.7598,0.086962
2163.6624,0.086435
2164.5657,0.086648
2165.47,0.086768
2166.3748,0.086662
2167.2805,0.086656
2168.187,0.086698
2169.0942,0.086701
2170.002,0.086856
2170.9109,0.086934
2171.8203,0.086652
2172.7307,0.086513
2173.6414,0.086571
2174.5535,0.086565
2175.4658,0.086448
2176.3792,0.086321
2177.2932,0.086413
2178.208,0.08652
2179.1235,0.086401
2180.04,0.086216
2180.957,0.08615
2181.875,0.08628
2182.7937,0.08636
2183.7131,0.086442
2184.6335,0.086469
2185.5544,0.086579
2186.4763,0.086605
2187.3987,0.086437
2188.3223,0.086157
2189.2463,0.085983
2190.1711,0.086173
2191.0969,0.086213
2192.0234,0.086205
2192.9504,0.086444
2193.8787,0.086504
2194.8074,0.086099
2195.7371,0.085917
2196.6675,0.085987
2197.5986,0.08616
2198.5305,0.086297
2199.4634,0.086142
2200.3967,0.086062
2201.3313,0.086121
2202.2664,0.086114
2203.2024,0.086033
2204.1389,0.085956
2205.0767,0.085543
2206.0149,0.085394
2206.9541,0.085597
2207.8938,0.086163
2208.8347,0.086418
2209.7761,0.086186
2210.7185,0.085962
2211.6616,0.085951
2212.6057,0.086229
2213.5503,0.086174
2214.4961,0.086109
2215.4421,0.085983
2216.3896,0.085679
2217.3376,0.085659
2218.2864,0.085778
2219.2361,0.085769
2220.1863,0.085699
2221.1377,0.085872
2222.0896,0.085711
2223.0425,0.08556
2223.9961,0.085899
2224.9507,0.085945
2225.906,0.085746
2226.8623,0.085731
2227.8191,0.08571
2228.7771,0.085593
2229.7356,0.085707
2230.6951,0.085736
2231.6553,0.085623
2232.6165,0.085763
2233.5781,0.085514
2234.541,0.085313
2235.5044,0.085217
2236.469,0.085327
2237.4341,0.085337
2238.4004,0.085347
2239.3672,0.085282
2240.335,0.085353
2241.3035,0.085405
2242.2729,0.085443
2243.2432,0.085533
2244.2144,0.08569
2245.1863,0.085586
2246.1592,0.08531
2247.1326,0.085312
2248.1072,0.085313
2249.0825,0.085187
2250.0586,0.084998
2251.0359,0.084944
2252.0134,0.085034
2252.9924,0.085055
2253.9717,0.085245
2254.9524,0.085295
2255.9333,0.085422
2256.9158,0.085382
2257.8984,0.085185
2258.8826,0.084974
2259.8669,0.084923
2260.8528,0.085094
2261.8391,0.08512
2262.8264,0.085032
2263.8145,0.085092
2264.8035,0.08509
2265.7932,0.084998
2266.7842,0.085084
2267.7756,0.084945
2268.7681,0.084857
2269.7615,0.084914
2270.7556,0.084982
2271.7507,0.085166
2272.7466,0.085216
2273.7434,0.085076
2274.7412,0.084973
2275.7397,0.085052
2276.7393,0.084991
2277.7395,0.084863
2278.7407,0.084861
2279.7427,0.084953
2280.7458,0.084981
2281.7495,0.08493
2282.7544,0.085052
2283.76,0.084963
2284.7664,0.084929
2285.7739,0.084884
2286.7822,0.084843
2287.7915,0.084723
2288.8013,0.08479
2289.8125,0.084925
2290.8242,0.08501
2291.8369,0.084869
2292.8506,0.084524
2293.8652,0.084479
2294.8804,0.084464
2295.897,0.08419
2296.9141,0.084362
2297.9324,0.084641
2298.9512,0.08468
2299.9712,0.084612
2300.9919,0.084648
2302.0139,0.084674
2303.0364,0.084682
2304.0601,0.084712
2305.0845,0.084644
2306.1099,0.084661
2307.1362,0.084611
2308.1636,0.084397
2309.1914,0.084291
2310.2207,0.08431
2311.2505,0.084388
2312.2815,0.084335
2313.3132,0.084263
2314.3459,0.084282
2315.3796,0.084287
2316.4143,0.084328
2317.4497,0.08439
2318.4861,0.084558
2319.5237,0.084626
2320.5618,0.08456
2321.6011,0.084434
2322.6411,0.084363
2323.6824,0.084235
2324.7244,0.084172
2325.7673,0.084046
2326.811,0.08394
2327.856,0.083981
2328.9016,0.083948
2329.9485,0.083823
2330.9958,0.083922
2332.0447,0.084038
2333.094,0.084103
2334.1448,0.084099
2335.196,0.084102
2336.2485,0.084152
2337.3015,0.084261
2338.356,0.084269
2339.4111,0.084131
2340.4673,0.084178
2341.5244,0.084146
2342.5825,0.083982
2343.6414,0.084043
2344.7017,0.084104
2345.7625,0.083956
2346.8245,0.083906
2347.8872,0.083926
2348.9512,0.083873
2350.0159,0.083857
2351.0818,0.083854
2352.1482,0.083926
2353.2161,0.083789
2354.2849,0.083698
2355.3545,0.083616
2356.4253,0.083595
2357.4966,0.08359
2358.5693,0.083557
2359.6428,0.083546
2360.7173,0.083562
2361.7927,0.083718
2362.8694,0.08364
2363.9468,0.083437
2365.0251,0.08365
2366.1045,0.083699
2367.1851,0.083605
2368.2664,0.083746
2369.3489,0.083696
2370.4321,0.08345
2371.5166,0.083328
2372.6018,0.083456
2373.6882,0.083552
2374.7756,0.083579
2375.864,0.083611
2376.9531,0.083549
2378.0437,0.083346
2379.135,0.083217
2380.2273,0.083297
2381.3206,0.08333
2382.415,0.083479
2383.5103,0.083395
2384.6067,0.083328
2385.7041,0.083297
2386.8025,0.08321
2387.9019,0.083302
2389.0024,0.083249
2390.1038,0.083224
2391.2063,0.083394
2392.3098,0.083398
2393.4141,0.0834
2394.5198,0.083219
2395.6262,0.082952
2396.7339,0.082935
2397.8423,0.083165
2398.9521,0.083374
2400.0625,0.083333
2401.1743,0.083055
2402.2869,0.083114
2403.4006,0.083148
2404.5154,0.083088
2405.6313,0.083052
2406.7478,0.083088
2407.866,0.083084
2408.9846,0.082986
2410.1047,0.082975
2411.2256,0.082928
2412.3477,0.082861
2413.4707,0.082878
2414.595,0.082976
2415.72,0.082973
2416.8462,0.08292
2417.9734,0.082974
2419.1018,0.08302
2420.231,0.083028
2421.3616,0.083014
2422.4929,0.082954
2423.6257,0.083006
2424.759,0.083019
2425.8938,0.082997
2427.0295,0.083076
2428.1663,0.082898
2429.304,0.082901
2430.4431,0.082976
2431.5833,0.082765
2432.7241,0.082702
2433.8665,0.08275
2435.0095,0.082716
2436.1538,0.08267
2437.2991,0.082598
2438.4456,0.082506
2439.593,0.082588
2440.7417,0.082586
2441.8911,0.082698
2443.042,0.082726
2444.1938,0.082556
2445.3467,0.08252
2446.5007,0.082435
2447.6558,0.082363
2448.812,0.082521
2449.9692,0.082682
2451.1277,0.082664
2452.2871,0.082557
2453.4478,0.082551
2454.6094,0.082671
2455.7722,0.082532
2456.936,0.082399
2458.1011,0.082331
2459.2671,0.082307
2460.4343,0.082347
2461.6025,0.08225
2462.772,0.082366
2463.9424,0.082582
2465.114,0.082623
2466.2869,0.082472
2467.4607,0.082251
2468.6357,0.08223
2469.8118,0.082361
2470.989,0.082431
2472.1675,0.082407
2473.3469,0.082336
2474.5276,0.08233
2475.7092,0.082331
2476.8921,0.082201
2478.0759,0.082048
2479.2612,0.081917
2480.4475,0.082005
2481.6348,0.082183
2482.8232,0.082138
2484.0129,0.081983
2485.2039,0.082096
2486.3958,0.082169
2487.5889,0.082137
2488.783,0.082091
2489.9783,0.082092
2491.1748,0.082094
2492.3726,0.082065
2493.5715,0.082014
2494.7715,0.081953
2495.9724,0.081921
2497.1748,0.082007
2498.3782,0.08202
2499.583,0.081948
2500.7886,0.081893
2501.9956,0.08182
2503.2036,0.081789
2504.4131,0.081909
2505.6235,0.081941
2506.835,0.081795
2508.0479,0.081731
2509.2617,0.081814
2510.4768,0.081851
2511.6934,0.081786
2512.9109,0.081845
2514.1296,0.081985
2515.3494,0.081861
2516.5706,0.081792
2517.7927,0.08181
2519.0161,0.081653
2520.2407,0.081665
2521.4666,0.081799
2522.6934,0.081816
2523.9216,0.081813
2525.1511,0.081766
2526.3816,0.081695
2527.6133,0.081594
2528.8464,0.081516
2530.0806,0.0816
2531.3159,0.081683
2532.5525,0.081629
2533.7903,0.081572
2535.0293,0.081561
2536.2695,0.081672
2537.511,0.081747
2538.7537,0.081613
2539.9976,0.081614
2541.2427,0.081584
2542.489,0.08163
2543.7366,0.081642
2544.9851,0.081466
2546.2351,0.081528
2547.4863,0.081635
2548.7388,0.081544
2549.9927,0.081435
2551.2476,0.081619
2552.5037,0.081766
2553.7612,0.081545
2555.0198,0.081367
2556.2795,0.081354
2557.5408,0.081307
2558.8032,0.081356
2560.0667,0.08142
2561.3315,0.081583
2562.5977,0.081517
2563.865,0.081413
2565.1335,0.081349
2566.4036,0.081381
2567.6746,0.081261
2568.947,0.081303
2570.2207,0.081469
2571.4956,0.081441
2572.7717,0.081465
2574.0491,0.081557
2575.3279,0.081437
2576.6079,0.081396
2577.8892,0.081399
2579.1716,0.081288
2580.4553,0.081232
2581.7405,0.08133
2583.0269,0.081274
2584.3145,0.081356
2585.6035,0.081202
2586.8936,0.081168
2588.1851,0.081208
2589.478,0.081055
2590.772,0.080964
2592.0674,0.080971
2593.364,0.081205
2594.6621,0.081446
2595.9614,0.081301
2597.262,0.080977
2598.564,0.080953
2599.8672,0.081019
2601.1716,0.081118
2602.4775,0.081202
2603.7847,0.081258
2605.093,0.081199
2606.4028,0.081083
2607.7139,0.081055
2609.0261,0.08106
2610.3398,0.081049
2611.655,0.080946
2612.9712,0.080927
2614.2891,0.080881
2615.6079,0.080897
2616.9282,0.080995
2618.25,0.080884
2619.573,0.080853
2620.8975,0.081107
2622.2231,0.08104
2623.55,0.080865
2624.8784,0.080717
2626.2083,0.080771
2627.5393,0.080848
2628.8716,0.080734
2630.2053,0.080949
2631.5405,0.080958
2632.877,0.080755
2634.2148,0.080737
2635.5542,0.080697
2636.8945,0.080707
2638.2366,0.080598
2639.5798,0.080564
2640.9246,0.08058
2642.2705,0.080551
2643.6182,0.080449
2644.9668,0.08045
2646.3171,0.080565
2647.6687,0.080521
2649.0215,0.080353
2650.3757,0.080329
2651.7314,0.08063
2653.0886,0.080727
2654.447,0.08051
2655.8069,0.08047
2657.1682,0.08038
2658.5308,0.080434
2659.8948,0.080611
2661.2603,0.080573
2662.6272,0.08049
2663.9954,0.080482
2665.365,0.080557
2666.7361,0.080749
2668.1086,0.080682
2669.4824,0.080545
2670.8579,0.080657
2672.2346,0.080412
2673.6125,0.080328
2674.9922,0.080287
2676.3733,0.080427
2677.7556,0.080375
2679.1394,0.080403
2680.5247,0.080359
2681.9114,0.080233
2683.2996,0.080346
2684.6892,0.080307
2686.0803,0.08021
2687.4727,0.08027
2688.8667,0.080268
2690.2622,0.080257
2691.6589,0.080253
2693.0571,0.080341
2694.457,0.080461
2695.8582,0.08016
2697.2607,0.079924
2698.6648,0.079956
2700.0703,0.080106
2701.4773,0.080211
2702.886,0.080094
2704.2959,0.079985
2705.7073,0.08002
2707.1201,0.08004
2708.5344,0.08008
2709.9504,0.080204
2711.3677,0.080319
2712.7866,0.080201
2714.2068,0.08011
2715.6287,0.079995
2717.052,0.079967
2718.4766,0.079903
2719.9028,0.079952
2721.3306,0.080076
2722.76,0.079946
2724.1907,0.080013
2725.623,0.080016
2727.0569,0.0799
2728.4919,0.079765
2729.929,0.079819
2731.3672,0.079767
2732.8069,0.07973
2734.2483,0.079841
2735.6912,0.07987
2737.1355,0.079728
2738.5815,0.079823
2740.0291,0.079773
2741.478,0.079699
2742.9287,0.079703
