Database of Origin,University of Winnipeg Spectrophotometer Facility
Sample Description,Carbonates and Oxolates - RELAB+Nicolet spectra Newly merged spectra (merged by RELAB)
Other Information,Baked
Date Added,2018-08-06 20:49:03.111999

Data ID,RLA_CARB_1_45       
Sample ID,CRB213Bk
Mineral Name,Thermonatr.
Locality,Keeler/ Inyo County/ California/ USA
Grain Size,<45 um
Viewing Geometry,30/0/30
Resolution,5/ 0.6-129 nm
Formula,Na2CO3*(H2O)
Composition,Trona/ natrite and wegscheiderite

Wavelength
305.0,0.731853
310.0,0.736416
315.0,0.746638
320.0,0.752221
325.0,0.758774
330.0,0.764016
335.0,0.769369
340.0,0.775881
345.0,0.779138
350.0,0.784244
355.0,0.788551
360.0,0.793648
365.0,0.798107
370.0,0.802451
375.0,0.806677
380.0,0.810731
385.0,0.814796
390.0,0.818412
395.0,0.821618
400.0,0.823219
405.0,0.825729
410.0,0.827365
415.0,0.829861
420.0,0.831248
425.0,0.833574
430.0,0.834688
435.0,0.837719
440.0,0.839193
445.0,0.841732
450.0,0.842203
455.0,0.845227
460.0,0.845968
465.0,0.849256
470.0,0.850351
475.0,0.852739
480.0,0.853703
485.0,0.855113
490.0,0.856471
495.0,0.858814
500.0,0.860193
505.0,0.862016
510.0,0.862594
515.0,0.865068
520.0,0.866366
525.0,0.86783
530.0,0.868747
535.0,0.870189
540.0,0.871375
545.0,0.872377
550.0,0.873697
555.0,0.874688
560.0,0.875114
565.0,0.876737
570.0,0.87735
575.0,0.878729
580.0,0.878817
585.0,0.880153
590.0,0.880357
595.0,0.881512
600.0,0.88169
605.0,0.882122
610.0,0.882571
615.0,0.883515
620.0,0.88351
625.0,0.884173
630.0,0.884745
635.0,0.885565
640.0,0.885737
645.0,0.88632
650.0,0.885322
655.0,0.886746
660.0,0.88789
665.0,0.887697
670.0,0.888068
675.0,0.88858
680.0,0.889146
685.0,0.889527
690.0,0.88941
695.0,0.890274
700.0,0.889906
705.0,0.891529
710.0,0.890502
715.0,0.891599
720.0,0.890874
725.0,0.891712
730.0,0.892073
735.0,0.89199
740.0,0.892943
745.0,0.892635
750.0,0.892121
755.0,0.892931
760.0,0.895084
765.0,0.89349
770.0,0.893721
775.0,0.89451
780.0,0.894818
785.0,0.895454
790.0,0.895044
795.0,0.895637
800.0,0.894763
805.0,0.895173
810.0,0.895246
815.0,0.895562
820.0,0.896017
825.0,0.895137
830.0,0.896096
835.0,0.896273
840.0,0.895913
845.0,0.897326
850.0,0.896676
855.0,0.89903
860.0,0.8963
865.0,0.89839
870.0,0.898877
875.0,0.898347
880.0,0.89574
885.0,0.898701
890.0,0.897937
895.0,0.89824
900.0,0.898642
905.0,0.898885
910.0,0.898365
915.0,0.899397
920.0,0.898688
925.0,0.89988
930.0,0.90054
935.0,0.89957
940.0,0.900029
945.0,0.900297
950.0,0.900365
955.0,0.900436
960.0,0.90097
965.0,0.900734
970.0,0.901483
975.0,0.900517
980.0,0.901025
985.0,0.901083
990.0,0.902376
995.0,0.902151
1000.0,0.900387
1005.0,0.90131
1010.0,0.901333
1015.0,0.900769
1020.0,0.901117
1025.0,0.900981
1030.0,0.902335
1035.0,0.902426
1040.0,0.902339
1045.0,0.902021
1050.0,0.902767
1055.0,0.902094
1060.0,0.902328
1065.0,0.901994
1070.0,0.902083
1075.0,0.902661
1080.0,0.902906
1085.0,0.902275
1090.0,0.902779
1095.0,0.90362
1100.0,0.903796
1105.0,0.903352
1110.0,0.903615
1115.0,0.904412
1120.0,0.903089
1125.0,0.903942
1130.0,0.903061
1135.0,0.90404
1140.0,0.903924
1145.0,0.903371
1150.0,0.903526
1155.0,0.904112
1160.0,0.904507
1165.0,0.903164
1170.0,0.903133
1175.0,0.903481
1180.0,0.901616
1185.0,0.90146
1190.0,0.903582
1195.0,0.903369
1200.0,0.903941
1205.0,0.904228
1210.0,0.905139
1215.0,0.904933
1220.0,0.905277
1225.0,0.905129
1230.0,0.904569
1235.0,0.90396
1240.0,0.904688
1245.0,0.904742
1250.0,0.905163
1255.0,0.905165
1260.0,0.905142
1265.0,0.905157
1270.0,0.905604
1275.0,0.904709
1280.0,0.903789
1285.0,0.905469
1290.0,0.90362
1295.0,0.903785
1300.0,0.903483
1305.0,0.904699
1310.0,0.904655
1315.0,0.904786
1320.0,0.90352
1325.0,0.901164
1330.0,0.902646
1335.0,0.903438
1340.0,0.900503
1345.0,0.900637
1350.0,0.901802
1355.0,0.901015
1360.0,0.900499
1365.0,0.898337
1370.0,0.898425
1375.0,0.898362
1380.0,0.898823
1385.0,0.898138
1420.0,0.892755
1425.0,0.892173
1430.0,0.891194
1435.0,0.891319
1440.0,0.890554
1445.0,0.889657
1450.0,0.887489
1455.0,0.887686
1460.0,0.88871
1465.0,0.886292
1470.0,0.884573
1475.0,0.883576
1480.0,0.8834
1485.0,0.882305
1490.0,0.879931
1495.0,0.88011
1500.0,0.878901
1505.0,0.87753
1510.0,0.879358
1515.0,0.876074
1520.0,0.876857
1525.0,0.875475
1530.0,0.876426
1535.0,0.874668
1540.0,0.87429
1545.0,0.873398
1550.0,0.873203
1555.0,0.873084
1560.0,0.872497
1565.0,0.872256
1570.0,0.871847
1575.0,0.871572
1580.0,0.871131
1585.0,0.870641
1590.0,0.870349
1595.0,0.869739
1600.0,0.869039
1605.0,0.868774
1610.0,0.868138
1615.0,0.867526
1620.0,0.867041
1625.0,0.866532
1630.0,0.865695
1635.0,0.864973
1640.0,0.864402
1645.0,0.863489
1650.0,0.86244
1655.0,0.861453
1660.0,0.860256
1665.0,0.859046
1670.0,0.857807
1675.0,0.856238
1680.0,0.855037
1685.0,0.853831
1690.0,0.852453
1695.0,0.851192
1700.0,0.850017
1705.31,0.848701
1709.81,0.848173
1715.46,0.847634
1720.02,0.84693
1724.6,0.846286
1730.35,0.845594
1734.98,0.84498
1739.64,0.84424
1745.5,0.843289
1750.21,0.842461
1754.95,0.841847
1759.72,0.841213
1764.51,0.840533
1770.54,0.839631
1775.39,0.838746
1780.27,0.837794
1785.17,0.836949
1790.1,0.835976
1795.06,0.834879
1800.05,0.833744
1805.06,0.832535
1810.1,0.831119
1815.17,0.829777
1820.27,0.828343
1825.4,0.826824
1830.56,0.825138
1834.44,0.824081
1839.65,0.822464
1844.89,0.821044
1850.16,0.819387
1855.45,0.818043
1859.45,0.816768
1864.8,0.815227
1870.18,0.81349
1875.59,0.811838
1879.67,0.810672
1885.14,0.80929
1890.64,0.808298
1894.79,0.80769
1900.34,0.806488
1904.53,0.805684
1910.15,0.80439
1914.38,0.803229
1920.05,0.802072
1924.33,0.801045
1930.06,0.799799
1934.38,0.799029
1940.17,0.797577
1944.54,0.796516
1950.39,0.795333
1954.8,0.794406
1960.72,0.793176
1965.18,0.792272
1969.66,0.791259
1975.66,0.789905
1980.19,0.788952
1984.74,0.787966
1989.31,0.786907
1995.43,0.785328
2000.05,0.784399
2004.69,0.7832
2009.35,0.782225
2015.6,0.781272
2020.32,0.780637
2025.05,0.780015
2029.81,0.779231
2034.59,0.778352
2039.39,0.777682
2044.22,0.776922
2050.69,0.775646
2055.57,0.77475
2060.47,0.773573
2065.39,0.773005
2070.34,0.77184
2075.31,0.770811
2080.31,0.769681
2085.33,0.768642
2090.38,0.767609
2095.45,0.766348
2100.54,0.765429
2105.66,0.76441
2110.8,0.763399
2114.25,0.762677
2119.43,0.761665
2124.65,0.760638
2129.88,0.759438
2135.15,0.758195
2140.44,0.756993
2145.75,0.755842
2149.31,0.755
2154.67,0.753485
2160.06,0.751664
2165.47,0.749793
2170.91,0.748519
2174.55,0.74739
2180.04,0.746012
2185.55,0.744542
2189.25,0.743677
2194.81,0.742006
2200.4,0.740302
2204.14,0.738982
2209.78,0.736994
2215.44,0.735189
2219.24,0.73404
2224.95,0.732056
2230.7,0.729625
2234.54,0.72796
2240.33,0.725377
2244.21,0.723333
2250.06,0.720186
2255.93,0.717085
2259.87,0.715214
2265.79,0.712482
2269.76,0.710278
2275.74,0.707233
2279.74,0.705065
2285.77,0.702379
2289.81,0.70058
2295.9,0.698015
2299.97,0.696653
2304.06,0.695753
2310.22,0.695169
2314.35,0.695034
2320.56,0.694553
2324.72,0.693933
2331.0,0.692688
2335.2,0.69146
2339.41,0.690145
2345.76,0.687649
2350.02,0.685991
2354.28,0.68496
2360.72,0.685846
2365.03,0.687647
2369.35,0.689687
2375.86,0.691256
2380.23,0.69136
2384.61,0.690951
2389.0,0.690774
2395.63,0.689994
2400.06,0.689521
2404.52,0.688809
2408.98,0.688079
2415.72,0.686967
2420.23,0.68636
2424.76,0.685457
2429.3,0.684452
2433.87,0.682962
2440.74,0.680812
2445.35,0.679344
2449.97,0.67794
2454.61,0.67598
2459.27,0.674456
2463.94,0.673016
2470.99,0.670322
2475.71,0.668226
2480.45,0.66605
2485.2,0.66396
2489.98,0.662109
2494.77,0.660638
2499.58,0.659132
2504.41,0.657752
2509.26,0.656264
2514.13,0.654838
2519.02,0.652866
2523.92,0.650439
2528.85,0.647264
2533.79,0.643684
2541.24,0.638357
2543.74,0.636842
2548.74,0.633976
2553.76,0.632689
2556.28,0.633006
2558.8,0.633788
2561.33,0.634552
2563.86,0.635812
2566.4,0.638014
2568.95,0.640421
2571.5,0.642154
2574.05,0.643185
2576.61,0.643971
2579.17,0.644611
2581.74,0.644781
2584.31,0.64427
2586.89,0.643857
2589.48,0.643622
2592.07,0.643301
2594.66,0.64233
2597.26,0.641149
2599.87,0.641373
2602.48,0.641313
2605.09,0.640439
2607.71,0.639743
2610.34,0.639358
2612.97,0.639029
2615.61,0.638523
2618.25,0.63753
2620.9,0.636762
2623.55,0.636293
2626.21,0.635671
2628.87,0.634753
2631.54,0.633768
2634.22,0.633016
2636.89,0.632671
2639.58,0.632069
2642.27,0.631046
2644.97,0.630095
2647.67,0.629251
2650.38,0.628266
2653.09,0.627279
2655.81,0.626246
2658.53,0.625464
2661.26,0.624441
2664.0,0.623186
2666.74,0.621557
2669.48,0.620151
2672.23,0.618889
2674.99,0.618051
2677.76,0.616789
2680.52,0.615167
2683.3,0.613849
2686.08,0.611962
2688.87,0.609418
2691.66,0.606696
2694.46,0.603227
2697.26,0.599247
2700.07,0.5959
2702.89,0.59255
2705.71,0.589718
2708.53,0.58704
2711.37,0.58408
2714.21,0.581759
2717.05,0.579714
2719.9,0.577004
2722.76,0.573845
2725.62,0.570455
2728.49,0.567376
2731.37,0.564418
2734.25,0.560555
2737.14,0.55619
2740.03,0.55183
2742.93,0.547279
2745.83,0.543125
2748.75,0.538825
2751.66,0.53429
2754.59,0.529627
2757.52,0.52444
2760.46,0.519929
2763.4,0.515813
2766.35,0.51128
2769.3,0.507437
2772.26,0.503693
2775.23,0.500119
2778.21,0.496466
2781.19,0.492866
2784.18,0.489466
2787.17,0.486094
2790.17,0.482587
2793.18,0.479235
2796.19,0.476126
2799.21,0.472618
2802.24,0.468599
2805.27,0.46402
2808.31,0.459916
2811.35,0.457401
2814.41,0.456434
2817.46,0.455886
2820.53,0.454504
2823.6,0.452603
2826.68,0.450964
2829.77,0.449528
2832.86,0.448658
2835.96,0.448022
2839.07,0.447551
2842.18,0.4467
2845.3,0.445577
2848.43,0.444552
2851.56,0.44328
2854.7,0.441794
2857.85,0.440685
2861.0,0.439261
2864.16,0.437578
2867.33,0.436246
2870.51,0.435093
2873.69,0.433735
2876.88,0.432315
2880.07,0.430797
2883.28,0.429559
2886.49,0.42834
2889.71,0.426829
2892.93,0.425452
2896.17,0.42431
2899.4,0.423171
2902.65,0.421921
2905.91,0.420454
2909.17,0.420387
2912.44,0.41974
2915.71,0.418915
2918.99,0.417964
2922.29,0.417211
2925.58,0.417321
2928.89,0.416789
2932.2,0.416088
2935.52,0.414593
2938.85,0.413948
2942.19,0.41265
2945.53,0.412159
2948.88,0.410358
2952.24,0.4096
2955.61,0.408232
2958.98,0.406932
2962.36,0.405561
2965.75,0.404509
2969.15,0.402628
2972.55,0.401937
2975.97,0.400203
2979.39,0.398726
2986.25,0.395125
2989.7,0.394011
2993.15,0.391974
2996.61,0.390895
3000.08,0.389526
3003.55,0.388201
3007.04,0.38612
3010.53,0.384673
3014.03,0.383428
3017.54,0.381662
3021.06,0.379719
3024.58,0.377813
3028.12,0.37633
3031.66,0.374079
3035.21,0.372699
3038.77,0.370246
3042.33,0.368262
3045.91,0.366369
3049.49,0.364592
3053.08,0.362695
3056.68,0.36021
3060.29,0.358591
3063.91,0.355789
3067.54,0.354103
3071.17,0.352013
3074.81,0.349434
3078.47,0.347423
3082.13,0.345085
3085.79,0.342616
3089.47,0.339828
3093.16,0.337237
3096.85,0.335251
3100.56,0.33283
3104.27,0.330031
3107.99,0.32719
3111.73,0.324696
3115.47,0.321784
3119.21,0.319326
3122.97,0.316083
3126.74,0.313231
3130.52,0.310239
3134.3,0.30774
3138.1,0.304451
3141.9,0.3021
3145.71,0.300074
3149.54,0.297933
3153.37,0.295623
3157.21,0.293976
3161.06,0.29196
3164.92,0.290013
3168.79,0.2881
3172.67,0.285716
3176.55,0.282751
3180.45,0.280443
3184.36,0.277946
3188.27,0.275739
3192.2,0.273261
3196.14,0.270384
3200.08,0.268308
3204.04,0.265742
3208.0,0.2636
3211.98,0.261381
3215.96,0.259447
3219.96,0.257139
3223.96,0.255187
3227.98,0.253626
3232.0,0.252128
3236.04,0.25038
3240.08,0.249037
3244.14,0.247443
3248.2,0.246642
3252.28,0.245374
3256.37,0.244602
3260.46,0.243305
3264.57,0.242393
3268.69,0.241777
3272.81,0.240317
3276.95,0.239203
3281.1,0.237487
3285.26,0.236121
3289.43,0.234059
3293.61,0.232155
3297.8,0.229688
3302.0,0.227396
3306.21,0.224615
3310.43,0.221662
3314.66,0.218536
3318.91,0.215587
3323.16,0.21236
3327.43,0.209428
3331.71,0.206155
3335.99,0.202559
3340.29,0.199242
3344.6,0.196188
3348.92,0.192571
3353.26,0.18823
3357.6,0.182918
3361.96,0.175992
3366.32,0.169364
3370.7,0.162984
3375.09,0.158179
3379.49,0.155093
3383.9,0.154027
3388.32,0.154202
3392.76,0.15459
3397.21,0.15549
3401.66,0.155938
3406.13,0.156857
3410.61,0.157366
3415.11,0.158326
3419.61,0.159615
3424.13,0.161477
3428.66,0.162306
3433.2,0.163356
3437.76,0.164355
3442.32,0.164704
3446.9,0.165439
3451.49,0.166169
3456.09,0.166436
3460.7,0.166489
3465.33,0.165919
3469.97,0.164222
3474.62,0.162258
3479.29,0.159897
3483.96,0.15848
3488.65,0.157807
3493.35,0.156638
3498.07,0.155235
3502.79,0.152243
3507.53,0.148853
3512.29,0.150362
3517.05,0.158717
3521.83,0.170799
3526.62,0.181917
3531.43,0.190738
3536.24,0.196948
3541.08,0.201817
3543.5,0.203482
3545.92,0.205053
3548.35,0.206681
3550.78,0.207634
3553.21,0.208562
3555.65,0.209563
3558.09,0.210094
3560.53,0.210562
3562.98,0.211077
3565.43,0.211745
3567.88,0.212253
3570.34,0.212455
3572.8,0.212381
3575.27,0.212416
3577.73,0.212631
3580.2,0.212634
3582.68,0.212498
3585.16,0.21251
3587.64,0.212618
3590.12,0.212896
3592.61,0.213403
3595.1,0.213727
3597.6,0.213782
3600.09,0.214
3602.6,0.214101
3605.1,0.214049
3607.61,0.214021
3610.12,0.213676
3612.64,0.213415
3615.16,0.213079
3617.68,0.212726
3620.21,0.212342
3622.74,0.211959
3625.27,0.211598
3627.81,0.211068
3630.35,0.210532
3632.89,0.20994
3635.44,0.209207
3637.99,0.208553
3640.54,0.207969
3643.1,0.20729
3645.66,0.206663
3648.23,0.205925
3650.8,0.205108
3653.37,0.204322
3655.95,0.203542
3658.53,0.202791
3661.11,0.202063
3663.7,0.20113
3666.29,0.200329
3668.89,0.19935
3671.48,0.198466
3674.09,0.197467
3676.69,0.196388
3679.3,0.195469
3681.91,0.194364
3684.53,0.193182
3687.15,0.1921
3689.78,0.190917
3692.4,0.189698
3695.04,0.188561
3697.67,0.187505
3700.31,0.186561
3702.95,0.185445
3705.6,0.184292
3708.25,0.183238
3710.91,0.182158
3713.56,0.181102
3716.23,0.180305
3718.89,0.179352
3721.56,0.178242
3724.23,0.177441
3726.91,0.176472
3729.59,0.175337
3732.28,0.174196
3734.97,0.173066
3737.66,0.172065
3740.36,0.171098
3743.06,0.17006
3745.76,0.169178
3748.47,0.168312
3751.18,0.167361
3753.9,0.166332
3756.62,0.165308
3759.34,0.164559
3762.07,0.163528
3764.8,0.16252
3767.54,0.161767
3770.28,0.161096
3773.02,0.160382
3775.77,0.159406
3778.52,0.158434
3781.28,0.157697
3784.04,0.156907
3786.8,0.156198
3789.57,0.155412
3792.34,0.154588
3795.12,0.153782
3797.9,0.153021
3800.69,0.15219
3803.47,0.151326
3806.27,0.150367
3809.06,0.149439
3811.86,0.148279
3814.67,0.147036
3817.48,0.145537
3820.29,0.143895
3823.11,0.142099
3825.93,0.140124
3828.76,0.138084
3831.59,0.136098
3834.42,0.134205
3837.26,0.132619
3840.1,0.13116
3842.95,0.129892
3845.8,0.129139
3848.65,0.128597
3851.51,0.127878
3854.38,0.127194
3857.24,0.126349
3860.12,0.125442
3862.99,0.124826
3865.87,0.124309
3868.76,0.123683
3871.65,0.123416
3874.54,0.123232
3877.44,0.12317
3880.34,0.123049
3883.25,0.12306
3886.16,0.123363
3889.07,0.123536
3891.99,0.123639
3894.92,0.123829
3897.85,0.123848
3900.78,0.12396
3903.72,0.124411
3906.66,0.125134
3909.6,0.125635
3912.55,0.126007
3915.51,0.126062
3918.47,0.125699
3921.43,0.12484
3924.4,0.123614
3927.38,0.121935
3930.35,0.120038
3933.33,0.118313
3936.32,0.116678
3939.31,0.115334
3942.31,0.11431
3945.31,0.113286
3948.31,0.112014
3951.32,0.110764
3954.34,0.109497
3957.35,0.107834
3960.38,0.105719
3963.41,0.103457
3966.44,0.101279
3969.48,0.099063
3972.52,0.096514
3975.56,0.093708
3978.61,0.090736
3981.67,0.087899
3984.73,0.085215
3987.8,0.083051
3990.87,0.08194
3993.94,0.081639
3997.02,0.081825
4000.1,0.081807
4003.19,0.080851
4006.29,0.078842
4009.39,0.076306
4012.49,0.074111
4015.6,0.073126
4018.71,0.073865
4021.83,0.07675
4024.95,0.082289
4028.08,0.089969
4031.21,0.098239
4034.35,0.106424
4037.49,0.11366
4040.64,0.11931
4043.79,0.123641
4046.94,0.127038
4050.11,0.129856
4053.27,0.132074
4056.44,0.13401
4059.62,0.136006
4062.8,0.137666
4065.99,0.13932
4069.18,0.140918
4072.38,0.142574
4075.58,0.143909
4078.78,0.144976
4082.0,0.146056
4085.21,0.146991
4088.43,0.147595
4091.66,0.148249
4094.89,0.149067
4098.13,0.149712
4101.37,0.150311
4104.62,0.150952
4107.87,0.151382
4111.13,0.151889
4114.39,0.152371
4117.66,0.152693
4120.93,0.153088
4124.21,0.153674
4127.5,0.15431
4130.79,0.154845
4134.08,0.155238
4137.38,0.155598
4140.68,0.156078
4143.99,0.156549
4147.31,0.156779
4150.63,0.157162
4153.95,0.157734
4157.29,0.158182
4160.62,0.158533
4163.96,0.158933
4167.31,0.159263
4170.66,0.159512
4174.02,0.159835
4177.39,0.160253
4180.75,0.16068
4184.13,0.161059
4187.51,0.161466
4190.89,0.1619
4194.28,0.162277
4197.68,0.16272
4201.08,0.163214
4204.49,0.163579
4207.9,0.163733
4211.32,0.163939
4214.74,0.164151
4218.17,0.164426
4221.61,0.164964
4225.05,0.165432
4228.5,0.165777
4231.95,0.166066
4235.4,0.166353
4238.87,0.166932
4242.34,0.167393
4245.81,0.167678
4249.29,0.168154
4252.78,0.16867
4256.27,0.169182
4259.77,0.169566
4263.27,0.169892
4266.78,0.170287
4270.29,0.170604
4273.81,0.170781
4277.34,0.171121
4280.87,0.171778
4284.41,0.172177
4287.95,0.172568
4291.5,0.172852
4295.06,0.173167
4298.62,0.173514
4302.19,0.17384
4305.76,0.174366
4309.34,0.174912
4312.92,0.175379
4316.52,0.175946
4320.11,0.176398
4323.72,0.176894
4327.32,0.177273
4330.94,0.177567
4334.56,0.177944
4338.19,0.178275
4341.82,0.178422
4345.46,0.17861
4349.11,0.178817
4352.76,0.178931
4356.42,0.179104
4360.08,0.179345
4363.75,0.179301
4367.43,0.179391
4371.11,0.179781
4374.8,0.180231
4378.49,0.180617
4382.19,0.180893
4385.9,0.181088
4389.61,0.181256
4393.33,0.181448
4397.06,0.1818
4400.79,0.182275
4404.53,0.182698
4408.28,0.183102
4412.03,0.183391
4415.79,0.183678
4419.55,0.18411
4423.32,0.184446
4427.1,0.184742
4430.88,0.184824
4434.68,0.185072
4438.47,0.185389
4442.28,0.185782
4446.08,0.186159
4449.9,0.186359
4453.72,0.186398
4457.55,0.186609
4461.39,0.186829
4465.23,0.186928
4469.08,0.187002
4472.94,0.187054
4476.8,0.187091
4480.67,0.187126
4484.55,0.187093
4488.43,0.187231
4492.32,0.187284
4496.21,0.187259
4500.12,0.187227
4504.03,0.187286
4507.94,0.187319
4511.87,0.187401
4515.8,0.187431
4519.73,0.187415
4523.68,0.187314
4527.63,0.187284
4531.59,0.187174
4535.55,0.18722
4539.52,0.187273
4543.5,0.187342
4547.49,0.187335
4551.48,0.187257
4555.48,0.186946
4559.49,0.186715
4563.5,0.186678
4567.52,0.186712
4571.55,0.186517
4575.58,0.186434
4579.63,0.186276
4583.67,0.18609
4587.73,0.185823
4591.79,0.185706
4595.86,0.185451
4599.94,0.184976
4604.03,0.184416
4608.12,0.183906
4612.22,0.183573
4616.33,0.183277
4620.44,0.18273
4624.56,0.182239
4628.69,0.18186
4632.83,0.18155
4636.97,0.18098
4641.12,0.180234
4645.28,0.17948
4649.45,0.178814
4653.62,0.178279
4657.8,0.177661
4661.99,0.176883
4666.19,0.176102
4670.39,0.175335
4674.6,0.174648
4678.82,0.173755
4683.05,0.172951
4687.28,0.172012
4691.52,0.171123
4695.77,0.170413
4700.03,0.169763
4704.3,0.169019
4708.57,0.168363
4712.85,0.1676
4717.14,0.166865
4721.43,0.166158
4725.74,0.165483
4730.05,0.164883
4734.37,0.164486
4738.7,0.16436
4743.03,0.164369
4747.38,0.164438
4751.73,0.164801
4756.09,0.165253
4760.45,0.165487
4764.83,0.165294
4769.21,0.164906
4773.6,0.164559
4778.0,0.164098
4782.41,0.163439
4786.83,0.163092
4791.25,0.162504
4795.68,0.161799
4800.13,0.161101
4804.57,0.160465
4809.03,0.159716
4813.5,0.158963
4817.97,0.158136
4822.45,0.157277
4826.94,0.156379
4831.44,0.155385
