Database of Origin,University of Winnipeg Spectrophotometer Facility
Sample Description,Carbonaceous chondrites - RELAB archive 8. Lab-heated carbonaceous chondrites
Other Information,ncmb64F Heated Murchison 900C
Date Added,2018-07-23 23:45:16.026030

Data ID,RLA_MET_41_6        
Sample ID,Murchison
Mineral Name,Murchison
Grain Size,<63 um
Viewing Geometry,30/0/30
Resolution,5/ 0.6-129 nm
Material Class,CM2.5/2.7

Wavelength
305.0,0.046114
310.0,0.046645
315.0,0.047419
320.0,0.048524
325.0,0.049498
330.0,0.050129
335.0,0.051041
340.0,0.051784
345.0,0.052292
350.0,0.052997
355.0,0.053401
360.0,0.053772
365.0,0.054216
370.0,0.05477
375.0,0.055069
380.0,0.055374
385.0,0.055399
390.0,0.055551
395.0,0.055759
400.0,0.055515
405.0,0.055683
410.0,0.056095
415.0,0.056088
420.0,0.056611
425.0,0.056529
430.0,0.057014
435.0,0.056982
440.0,0.057047
445.0,0.057025
450.0,0.057015
455.0,0.056949
460.0,0.05692
465.0,0.056794
470.0,0.05714
475.0,0.057051
480.0,0.056889
485.0,0.056858
490.0,0.056823
495.0,0.056911
500.0,0.056764
505.0,0.05668
510.0,0.056825
515.0,0.056887
520.0,0.056874
525.0,0.056818
530.0,0.056857
535.0,0.056877
540.0,0.05682
545.0,0.056937
550.0,0.056919
555.0,0.056854
560.0,0.056972
565.0,0.056899
570.0,0.05686
575.0,0.056801
580.0,0.05696
585.0,0.057017
590.0,0.056936
595.0,0.056945
600.0,0.056899
605.0,0.056919
610.0,0.056972
615.0,0.057227
620.0,0.057344
625.0,0.057339
630.0,0.057391
635.0,0.057358
640.0,0.057105
645.0,0.057136
650.0,0.056939
655.0,0.056842
660.0,0.056786
665.0,0.056689
670.0,0.056705
675.0,0.056702
680.0,0.056608
685.0,0.056535
690.0,0.056385
695.0,0.056368
700.0,0.056378
705.0,0.056325
710.0,0.0564
715.0,0.056548
720.0,0.056475
725.0,0.056463
730.0,0.056629
735.0,0.056641
740.0,0.056451
745.0,0.056483
750.0,0.056466
755.0,0.056556
760.0,0.057115
765.0,0.057189
770.0,0.057154
775.0,0.057307
780.0,0.057245
785.0,0.056954
790.0,0.057091
795.0,0.057147
800.0,0.057006
805.0,0.056987
810.0,0.056513
815.0,0.056431
820.0,0.056597
825.0,0.056521
830.0,0.056538
835.0,0.056224
840.0,0.056423
845.0,0.05648
850.0,0.05623
855.0,0.056034
860.0,0.055933
865.0,0.055856
870.0,0.055728
875.0,0.055769
880.0,0.055742
885.0,0.055625
890.0,0.055567
895.0,0.055823
900.0,0.05574
905.0,0.055655
910.0,0.055952
915.0,0.05546
920.0,0.05555
925.0,0.055826
930.0,0.055879
935.0,0.055629
940.0,0.055792
945.0,0.055828
950.0,0.055592
955.0,0.056026
960.0,0.055787
965.0,0.055666
970.0,0.055676
975.0,0.055716
980.0,0.055788
985.0,0.055792
990.0,0.055719
995.0,0.055564
1000.0,0.055768
1005.0,0.055688
1010.0,0.055748
1015.0,0.05552
1020.0,0.055707
1025.0,0.055684
1030.0,0.055603
1035.0,0.055741
1040.0,0.055661
1045.0,0.055577
1050.0,0.055678
1055.0,0.055657
1060.0,0.055711
1065.0,0.055594
1070.0,0.055811
1075.0,0.055856
1080.0,0.055786
1085.0,0.055779
1090.0,0.055613
1095.0,0.055818
1100.0,0.055911
1105.0,0.055872
1110.0,0.055815
1115.0,0.055862
1120.0,0.055964
1125.0,0.056016
1130.0,0.056011
1135.0,0.056245
1140.0,0.055967
1145.0,0.05606
1150.0,0.056098
1155.0,0.056221
1160.0,0.056411
1165.0,0.056403
1170.0,0.05643
1175.0,0.056538
1180.0,0.056501
1185.0,0.056586
1190.0,0.056512
1195.0,0.056575
1200.0,0.056578
1205.0,0.056532
1210.0,0.05671
1215.0,0.057013
1220.0,0.05701
1225.0,0.056835
1230.0,0.057022
1235.0,0.056924
1240.0,0.056994
1245.0,0.056817
1250.0,0.056935
1255.0,0.056923
1260.0,0.056815
1265.0,0.056924
1270.0,0.057011
1275.0,0.057022
1280.0,0.056762
1285.0,0.056818
1290.0,0.057049
1295.0,0.057065
1300.0,0.057076
1305.0,0.057353
1310.0,0.057123
1315.0,0.057211
1320.0,0.057154
1325.0,0.05721
1330.0,0.057304
1335.0,0.05728
1340.0,0.057379
1345.0,0.05748
1350.0,0.057431
1355.0,0.057556
1360.0,0.057299
1365.0,0.05786
1370.0,0.057937
1375.0,0.057546
1380.0,0.057305
1385.0,0.057962
1390.0,0.057562
1395.0,0.058142
1400.0,0.058354
1405.0,0.057966
1410.0,0.058149
1415.0,0.058018
1420.0,0.058034
1425.0,0.05816
1430.0,0.058071
1435.0,0.058192
1440.0,0.058427
1445.0,0.058221
1450.0,0.058229
1455.0,0.058325
1460.0,0.058242
1465.0,0.058342
1470.0,0.058613
1475.0,0.058476
1480.0,0.058551
1485.0,0.058531
1490.0,0.058606
1495.0,0.0586
1500.0,0.058547
1505.0,0.058599
1510.0,0.058661
1515.0,0.058777
1520.0,0.058836
1525.0,0.058962
1530.0,0.058945
1535.0,0.058882
1540.0,0.059003
1545.0,0.059007
1550.0,0.059116
1555.0,0.059016
1560.0,0.059152
1565.0,0.05885
1570.0,0.059047
1575.0,0.059146
1580.0,0.059235
1585.0,0.059351
1590.0,0.059407
1595.0,0.059436
1600.0,0.059405
1605.0,0.059233
1610.0,0.059348
1615.0,0.059267
1620.0,0.059402
1625.0,0.059399
1630.0,0.059373
1635.0,0.059284
1640.0,0.059342
1645.0,0.059591
1650.0,0.05964
1655.0,0.059564
1660.0,0.059565
1665.0,0.059557
1670.0,0.059794
1675.0,0.05977
1680.0,0.060038
1685.0,0.059868
1690.0,0.059638
1695.0,0.0601
1700.0,0.059863
1705.0,0.059768
1710.0,0.059893
1715.0,0.059757
1720.0,0.05968
1725.0,0.059673
1730.0,0.059742
1735.0,0.059628
1740.0,0.059581
1745.0,0.059775
1750.0,0.059689
1755.0,0.059664
1760.0,0.059708
1765.0,0.059738
1770.0,0.059706
1775.0,0.059607
1780.0,0.059856
1785.0,0.059784
1790.0,0.059958
1795.0,0.059885
1800.0,0.059837
1805.0,0.059916
1810.0,0.059775
1815.0,0.059723
1820.0,0.0599
1825.0,0.059705
1830.0,0.059919
1835.0,0.059693
1840.0,0.06059
1845.0,0.059893
1850.0,0.060327
1855.0,0.060022
1860.0,0.06026
1865.0,0.059205
1870.0,0.059958
1875.0,0.061133
1880.0,0.060413
1885.0,0.06024
1890.0,0.060247
1895.0,0.060001
1900.0,0.060268
1905.0,0.06119
1910.0,0.060363
1915.0,0.060414
1920.0,0.060694
1925.0,0.060574
1930.0,0.060661
1935.0,0.060433
1940.0,0.060636
1945.0,0.060386
1950.0,0.060503
1955.0,0.06056
1960.0,0.060497
1965.0,0.060585
1970.0,0.060673
1975.0,0.06065
1980.0,0.060886
1985.0,0.060877
1990.0,0.060774
1995.0,0.060771
2000.0,0.060833
2005.0,0.060812
2010.0,0.060869
2015.0,0.0607
2020.0,0.060878
2025.0,0.060805
2030.0,0.060692
2035.0,0.060786
2040.0,0.060894
2045.0,0.06084
2050.0,0.061097
2055.0,0.060937
2060.0,0.060993
2065.0,0.061036
2070.0,0.061101
2075.0,0.061031
2080.0,0.060979
2085.0,0.061044
2090.0,0.060857
2095.0,0.06108
2100.0,0.061134
2105.0,0.06108
2110.0,0.061171
2115.0,0.061047
2120.0,0.061295
2125.0,0.06102
2130.0,0.061057
2135.0,0.06102
2140.0,0.060971
2145.0,0.061099
2150.0,0.061289
2155.0,0.061275
2160.0,0.06133
2165.0,0.061431
2170.0,0.061656
2175.0,0.061574
2180.0,0.061661
2185.0,0.061758
2190.0,0.06192
2195.0,0.06193
2200.0,0.061859
2205.0,0.062094
2210.0,0.062205
2215.0,0.062085
2220.0,0.062192
2225.0,0.062154
2230.0,0.062197
2235.0,0.062308
2240.0,0.062201
2245.0,0.062485
2250.0,0.062356
2255.0,0.062394
2260.0,0.06241
2265.0,0.062524
2270.0,0.062707
2275.0,0.062697
2280.0,0.062536
2285.0,0.062601
2290.0,0.062669
2295.0,0.062796
2300.0,0.062816
2305.0,0.062682
2310.0,0.062783
2315.0,0.062937
2320.0,0.062999
2325.0,0.062993
2330.0,0.062779
2335.0,0.062873
2340.0,0.062865
2345.0,0.06307
2350.0,0.062884
2355.0,0.062841
2360.0,0.062676
2365.0,0.062758
2370.0,0.062936
2375.0,0.062729
2380.0,0.062843
2385.0,0.062903
2390.0,0.06301
2395.0,0.062961
2400.0,0.063194
2405.0,0.063092
2410.0,0.063098
2415.0,0.063019
2420.0,0.063631
2425.0,0.063513
2430.0,0.063538
2435.0,0.063633
2440.0,0.063656
2445.0,0.063509
2450.0,0.063517
2455.0,0.063622
2460.0,0.063649
2465.0,0.063644
2470.0,0.063706
2475.0,0.063967
2480.0,0.063789
2485.0,0.06376
2490.0,0.063889
2495.0,0.063896
2500.0,0.063789
2502.0,0.063817
2503.2,0.063397
2504.41,0.063454
2505.62,0.063865
2506.83,0.063743
2508.05,0.063601
2509.26,0.063926
2510.48,0.064411
2511.69,0.064506
2512.91,0.064326
2514.13,0.064301
2515.35,0.064333
2516.57,0.064451
2517.79,0.064618
2519.02,0.064347
2520.24,0.063802
2521.47,0.063541
2522.69,0.063709
2523.92,0.064023
2525.15,0.064162
2526.38,0.064201
2527.61,0.064117
2528.85,0.064011
2530.08,0.063936
2531.32,0.064032
2532.55,0.064119
2533.79,0.063953
2535.03,0.06409
2536.27,0.06462
2537.51,0.064678
2538.75,0.064397
2540.0,0.064326
2541.24,0.064265
2542.49,0.064174
2543.74,0.064065
2544.99,0.064012
2546.24,0.064121
2547.49,0.064478
2548.74,0.064317
2549.99,0.064054
2551.25,0.064448
2552.5,0.064808
2553.76,0.064977
2555.02,0.064808
2556.28,0.064848
2557.54,0.064776
2558.8,0.064709
2560.07,0.064916
2561.33,0.06473
2562.6,0.064469
2563.86,0.064696
2565.13,0.064267
2566.4,0.064366
2567.67,0.064693
2568.95,0.064631
2570.22,0.064367
2571.5,0.064308
2572.77,0.064502
2574.05,0.064479
2575.33,0.064298
2576.61,0.064703
2577.89,0.064931
2579.17,0.064396
2580.46,0.064287
2581.74,0.064615
2583.03,0.064729
2584.31,0.064442
2585.6,0.063988
2586.89,0.064347
2588.19,0.064911
2589.48,0.064848
2590.77,0.064588
2592.07,0.064254
2593.36,0.064646
2594.66,0.064931
2595.96,0.064371
2597.26,0.064572
2598.56,0.064984
2599.87,0.065068
2601.17,0.064983
2602.48,0.06469
2603.78,0.06496
2605.09,0.065143
2606.4,0.064865
2607.71,0.064757
2609.03,0.065056
2610.34,0.064984
2611.66,0.064953
2612.97,0.065216
2614.29,0.065023
2615.61,0.064908
2616.93,0.065025
2618.25,0.065111
2619.57,0.065206
2620.9,0.065204
2622.22,0.065022
2623.55,0.064725
2624.88,0.064756
2626.21,0.064983
2627.54,0.064891
2628.87,0.064891
2630.21,0.065005
2631.54,0.064682
2632.88,0.06503
2634.21,0.065102
2635.55,0.064456
2636.89,0.064559
2638.24,0.064917
2639.58,0.06489
2640.92,0.065119
2642.27,0.065145
2643.62,0.06462
2644.97,0.06476
2646.32,0.064848
2647.67,0.064823
2649.02,0.065054
2650.38,0.065094
2651.73,0.064808
2653.09,0.064963
2654.45,0.065148
2655.81,0.064921
2657.17,0.06485
2658.53,0.064917
2659.89,0.064732
2661.26,0.064768
2662.63,0.064918
2664.0,0.064995
2665.36,0.064948
2666.74,0.065322
2668.11,0.065543
2669.48,0.065459
2670.86,0.065323
2672.23,0.065121
2673.61,0.065467
2674.99,0.065371
2676.37,0.065057
2677.76,0.065026
2679.14,0.065159
2680.52,0.065285
2681.91,0.065406
2683.3,0.065358
2684.69,0.064942
2686.08,0.064923
2687.47,0.065205
2688.87,0.065219
2690.26,0.065224
2691.66,0.06529
2693.06,0.065111
2694.46,0.064918
2695.86,0.065199
2697.26,0.065441
2698.66,0.065589
2700.07,0.06532
2701.48,0.065013
2702.89,0.065404
2704.3,0.06572
2705.71,0.065597
2707.12,0.065476
2708.53,0.065438
2709.95,0.065528
2711.37,0.065836
2712.79,0.065684
2714.21,0.065721
2715.63,0.065582
2717.05,0.065389
2718.48,0.065333
2719.9,0.065232
2721.33,0.06531
2722.76,0.065643
2724.19,0.065389
2725.62,0.065209
2727.06,0.065488
2728.49,0.065679
2729.93,0.065623
2731.37,0.065875
2732.81,0.065971
2734.25,0.065798
2735.69,0.065624
2737.14,0.065699
2738.58,0.065714
2740.03,0.065341
2741.48,0.064938
2742.93,0.065304
2744.38,0.065821
2745.83,0.06573
2747.29,0.065765
2748.75,0.065607
2750.2,0.06522
2751.66,0.065325
2753.13,0.065801
2754.59,0.065851
2756.05,0.065597
2757.52,0.065461
2758.99,0.065812
2760.46,0.066028
2761.93,0.065932
2763.4,0.065839
2764.87,0.065549
2766.35,0.065641
2767.82,0.065697
2769.3,0.065555
2770.78,0.065686
2772.26,0.065853
2773.75,0.065724
2775.23,0.065512
2776.72,0.065589
2778.21,0.065808
2779.7,0.065663
2781.19,0.065675
2782.68,0.066011
2784.18,0.066004
2785.67,0.065813
2787.17,0.065947
2788.67,0.066095
2790.17,0.066064
2791.67,0.065965
2793.18,0.065815
2794.68,0.065803
2796.19,0.065796
2797.7,0.065813
2799.21,0.065983
2800.72,0.065888
2802.24,0.06578
2803.75,0.065923
2805.27,0.065885
2806.79,0.065937
2808.31,0.065925
2809.83,0.065908
2811.35,0.065728
2812.88,0.065704
2814.41,0.06563
2815.93,0.065418
2817.46,0.065527
2819.0,0.06569
2820.53,0.065905
2822.07,0.065864
2823.6,0.065797
2825.14,0.065868
2826.68,0.066085
2828.22,0.065968
2829.77,0.065637
2831.31,0.065533
2832.86,0.065733
2834.41,0.066011
2835.96,0.065991
2837.51,0.06597
2839.07,0.066012
2840.62,0.065843
2842.18,0.065759
2843.74,0.065813
2845.3,0.065953
2846.86,0.065872
2848.43,0.065925
2849.99,0.066243
2851.56,0.066437
2853.13,0.066062
2854.7,0.065724
2856.27,0.066193
2857.85,0.066295
2859.42,0.065925
2861.0,0.065955
2862.58,0.066151
2864.16,0.065651
2865.75,0.065486
2867.33,0.065767
2868.92,0.066128
2870.51,0.06597
2872.1,0.065773
2873.69,0.065859
2875.28,0.06603
2876.88,0.066371
2878.48,0.066621
2880.07,0.066471
2881.68,0.066278
2883.28,0.066193
2884.88,0.066062
2886.49,0.065876
2888.1,0.066043
2889.71,0.06612
2891.32,0.06593
2892.93,0.066122
2894.55,0.066369
2896.16,0.066035
2897.78,0.06625
2899.4,0.066489
2901.03,0.066286
2902.65,0.066245
2904.28,0.066424
2905.91,0.066561
2907.54,0.066447
2909.17,0.066506
2910.8,0.06652
2912.44,0.066614
2914.07,0.066459
2915.71,0.066339
2917.35,0.066552
2918.99,0.066467
2920.64,0.066194
2922.29,0.066124
2923.93,0.066433
2925.58,0.066476
2927.24,0.066494
2928.89,0.066536
2930.55,0.066417
2932.2,0.066506
2933.86,0.066581
2935.52,0.066476
2937.19,0.06639
2938.85,0.066485
2940.52,0.066345
2942.19,0.066437
2943.86,0.066555
2945.53,0.066567
2947.21,0.066571
2948.88,0.066527
2950.56,0.06647
2952.24,0.066661
2953.92,0.066858
2955.61,0.066875
2957.29,0.066772
2958.98,0.066622
2960.67,0.066397
2962.36,0.066464
2964.06,0.066549
2965.75,0.066442
2967.45,0.066669
2969.15,0.066843
2970.85,0.066669
2972.55,0.066613
2974.26,0.066752
2975.97,0.066806
2977.68,0.066915
2979.39,0.067035
2981.1,0.067143
2982.82,0.067134
2984.53,0.066953
2986.25,0.066868
2987.97,0.067014
2989.7,0.067027
2991.42,0.066862
2993.15,0.066491
2994.88,0.066597
2996.61,0.066875
2998.34,0.067116
3000.08,0.067209
3001.82,0.06724
3003.55,0.067102
3005.3,0.066702
3007.04,0.066847
3008.78,0.067039
3010.53,0.06721
3012.28,0.067346
3014.03,0.067296
3015.79,0.067229
3017.54,0.067376
3019.3,0.067319
3021.06,0.067133
3022.82,0.067139
3024.58,0.067233
3026.35,0.067287
3028.12,0.067368
3029.89,0.067427
3031.66,0.067343
3033.43,0.067358
3035.21,0.067408
3036.99,0.067493
3038.77,0.067423
3040.55,0.067098
3042.33,0.067142
3044.12,0.067367
3045.91,0.067474
3047.7,0.067366
3049.49,0.067391
3051.29,0.067553
3053.08,0.067612
3054.88,0.067614
3056.68,0.067619
3058.49,0.067704
3060.29,0.067608
3062.1,0.067543
3063.91,0.067591
3065.72,0.067476
3067.54,0.067408
3069.35,0.067488
3071.17,0.06771
3072.99,0.067747
3074.81,0.06743
3076.64,0.067414
3078.47,0.067686
3080.29,0.067939
3082.13,0.068213
3083.96,0.068131
3085.79,0.067998
3087.63,0.067917
3089.47,0.067847
3091.31,0.067752
3093.16,0.067534
3095.01,0.067462
3096.85,0.067567
3098.71,0.067945
3100.56,0.068075
3102.41,0.067762
3104.27,0.067907
3106.13,0.067923
3107.99,0.067723
3109.86,0.067743
3111.73,0.067708
3113.59,0.067789
3115.47,0.068096
3117.34,0.068301
3119.21,0.06846
3121.09,0.068481
3122.97,0.068259
3124.86,0.068041
3126.74,0.068042
3128.63,0.06807
3130.52,0.068171
3132.41,0.068263
3134.3,0.068329
3136.2,0.068398
3138.1,0.068415
3140.0,0.068409
3141.9,0.068335
3143.81,0.068332
3145.71,0.068143
3147.62,0.068066
3149.54,0.068171
3151.45,0.068372
3153.37,0.068467
3155.29,0.068365
3157.21,0.068385
3159.13,0.068476
3161.06,0.068637
3162.99,0.068706
3164.92,0.068603
3166.85,0.068702
3168.79,0.068549
3170.72,0.068464
3172.67,0.068672
3174.61,0.068821
3176.55,0.068777
3178.5,0.06877
3180.45,0.068762
3182.4,0.068716
3184.36,0.068783
3186.32,0.068732
3188.27,0.06865
3190.24,0.068694
3192.2,0.068812
3194.17,0.068812
3196.14,0.068817
3198.11,0.068934
3200.08,0.068879
3202.06,0.068593
3204.04,0.068552
3206.02,0.068763
3208.0,0.068825
3209.99,0.068998
3211.98,0.069185
3213.97,0.068973
3215.96,0.068756
3217.96,0.068755
3219.96,0.068722
3221.96,0.068782
3223.96,0.06889
3225.97,0.06913
3227.98,0.069331
3229.99,0.069115
3232.0,0.068839
3234.02,0.068934
3236.04,0.068997
3238.06,0.069132
3240.08,0.069416
3242.11,0.069318
3244.14,0.069175
3246.17,0.069295
3248.2,0.069118
3250.24,0.069006
3252.28,0.069212
3254.32,0.069497
3256.37,0.069442
3258.41,0.069297
3260.46,0.069375
3262.51,0.069506
3264.57,0.069403
3266.63,0.069216
3268.69,0.069279
3270.75,0.069502
3272.81,0.069445
3274.88,0.069353
3276.95,0.069336
3279.02,0.069475
3281.1,0.069533
3283.18,0.069461
3285.26,0.069526
3287.34,0.069602
3289.43,0.069555
3291.51,0.069555
3293.61,0.069644
3295.7,0.069746
3297.8,0.069824
3299.9,0.069987
3302.0,0.070026
3304.1,0.06991
3306.21,0.069651
3308.32,0.06985
3310.43,0.070035
3312.55,0.069701
3314.66,0.069525
3316.79,0.069744
3318.91,0.069818
3321.03,0.070013
3323.16,0.069985
3325.29,0.06987
3327.43,0.07004
3329.57,0.070117
3331.71,0.07016
3333.85,0.070025
3335.99,0.069879
3338.14,0.069851
3340.29,0.069889
3342.45,0.070001
3344.6,0.07006
3346.76,0.070208
3348.92,0.070208
3351.09,0.069931
3353.26,0.069902
3355.43,0.070067
3357.6,0.07013
3359.78,0.070109
3361.96,0.070097
3364.14,0.070189
3366.32,0.07015
3368.51,0.069895
3370.7,0.069819
3372.89,0.069893
3375.09,0.069896
3377.29,0.070007
3379.49,0.070182
3381.69,0.070323
3383.9,0.070368
3386.11,0.070257
3388.32,0.070069
3390.54,0.07026
3392.76,0.070321
3394.98,0.070364
3397.21,0.070385
3399.43,0.070343
3401.66,0.070245
3403.9,0.07011
3406.13,0.070388
3408.37,0.070436
3410.61,0.070239
3412.86,0.070233
3415.11,0.070407
3417.36,0.07042
3419.61,0.070381
3421.87,0.070385
3424.13,0.070288
3426.39,0.070304
3428.66,0.070509
3430.93,0.070692
3433.2,0.07081
3435.48,0.07067
3437.76,0.070689
3440.04,0.070789
3442.32,0.070749
3444.61,0.070709
3446.9,0.070706
3449.19,0.070715
3451.49,0.070716
3453.79,0.070738
3456.09,0.070896
3458.4,0.071057
3460.7,0.070925
3463.02,0.070914
3465.33,0.071014
3467.65,0.071022
3469.97,0.071139
3472.29,0.071075
3474.62,0.071129
3476.95,0.07141
3479.29,0.071335
3481.62,0.07106
3483.96,0.071049
3486.3,0.071207
3488.65,0.071229
3491.0,0.071184
3493.35,0.071129
3495.71,0.071039
3498.07,0.070999
3500.43,0.070971
3502.79,0.070951
3505.16,0.071043
3507.53,0.071258
3509.91,0.071392
3512.29,0.071245
3514.67,0.071409
3517.05,0.071587
3519.44,0.071566
3521.83,0.071708
3524.23,0.07161
3526.62,0.071478
3529.02,0.071542
3531.43,0.071637
3533.83,0.071727
3536.24,0.07157
3538.66,0.071428
3541.08,0.071606
3543.5,0.071633
3545.92,0.071545
3548.35,0.071702
3550.78,0.071732
3553.21,0.071493
3555.65,0.071529
3558.09,0.071771
3560.53,0.071831
3562.98,0.071762
3565.43,0.07186
3567.88,0.071839
3570.34,0.071853
3572.8,0.071976
3575.27,0.071995
3577.73,0.071936
3580.2,0.071778
3582.68,0.071756
3585.16,0.071871
3587.64,0.072015
3590.12,0.072046
3592.61,0.072092
3595.1,0.072155
3597.6,0.072184
3600.09,0.07219
3602.6,0.072145
3605.1,0.07213
3607.61,0.071983
3610.12,0.072131
3612.64,0.072358
3615.16,0.072395
3617.68,0.072269
3620.21,0.072248
3622.74,0.072539
3625.27,0.072502
3627.81,0.072281
3630.35,0.072348
3632.89,0.072282
3635.44,0.072267
3637.99,0.072332
3640.54,0.07249
3643.1,0.072497
3645.66,0.072299
3648.23,0.072398
3650.8,0.072435
3653.37,0.0724
3655.95,0.07241
3658.53,0.072467
3661.11,0.072504
3663.7,0.072542
3666.29,0.072487
3668.89,0.072681
3671.48,0.072726
3674.09,0.072594
3676.69,0.072499
3679.3,0.072428
3681.91,0.072509
3684.53,0.072693
3687.15,0.072765
3689.78,0.072687
3692.4,0.072739
3695.04,0.072829
3697.67,0.072762
3700.31,0.07274
3702.95,0.072814
3705.6,0.072831
3708.25,0.072746
3710.91,0.07276
3713.56,0.072728
3716.23,0.072781
3718.89,0.072871
3721.56,0.073061
3724.23,0.073049
3726.91,0.072993
3729.59,0.07303
3732.28,0.072961
3734.97,0.07297
3737.66,0.073023
3740.36,0.072997
3743.06,0.07301
3745.76,0.073044
