Database of Origin,University of Winnipeg Spectrophotometer Facility
Sample Description,Carbonaceous chondrites - RELAB archive 8. Lab-heated carbonaceous chondrites
Other Information,ncmb64C Heated Murchison 600C
Date Added,2018-07-23 23:45:15.842199

Data ID,RLA_MET_41_3        
Sample ID,Murchison
Mineral Name,Murchison
Grain Size,<63 um
Viewing Geometry,30/0/30
Resolution,5/ 0.6-129 nm
Material Class,CM2.5/2.7

Wavelength
305.0,0.021858
310.0,0.02294
315.0,0.022981
320.0,0.022934
325.0,0.023006
330.0,0.023141
335.0,0.024018
340.0,0.023975
345.0,0.02406
350.0,0.024478
355.0,0.024578
360.0,0.024757
365.0,0.02539
370.0,0.025999
375.0,0.026467
380.0,0.02686
385.0,0.027055
390.0,0.027245
395.0,0.027199
400.0,0.027237
405.0,0.027373
410.0,0.028181
415.0,0.028242
420.0,0.028633
425.0,0.028807
430.0,0.02911
435.0,0.029139
440.0,0.029234
445.0,0.029269
450.0,0.029587
455.0,0.029683
460.0,0.029702
465.0,0.029738
470.0,0.029813
475.0,0.029907
480.0,0.030093
485.0,0.030213
490.0,0.030257
495.0,0.030373
500.0,0.030421
505.0,0.030554
510.0,0.030591
515.0,0.030827
520.0,0.030981
525.0,0.031004
530.0,0.031129
535.0,0.031211
540.0,0.031416
545.0,0.031439
550.0,0.031542
555.0,0.031557
560.0,0.031706
565.0,0.031721
570.0,0.031827
575.0,0.03195
580.0,0.032057
585.0,0.032059
590.0,0.032146
595.0,0.032217
600.0,0.032232
605.0,0.032436
610.0,0.032589
615.0,0.032668
620.0,0.032722
625.0,0.032814
630.0,0.032863
635.0,0.032827
640.0,0.032842
645.0,0.032924
650.0,0.032887
655.0,0.032869
660.0,0.032902
665.0,0.032901
670.0,0.032912
675.0,0.032893
680.0,0.033021
685.0,0.032975
690.0,0.033115
695.0,0.032806
700.0,0.03291
705.0,0.032996
710.0,0.032992
715.0,0.032999
720.0,0.032997
725.0,0.033066
730.0,0.033146
735.0,0.033177
740.0,0.03328
745.0,0.033268
750.0,0.033366
755.0,0.03323
760.0,0.033655
765.0,0.033753
770.0,0.033748
775.0,0.03373
780.0,0.033785
785.0,0.033795
790.0,0.033782
795.0,0.033949
800.0,0.033818
805.0,0.033858
810.0,0.033865
815.0,0.033859
820.0,0.033694
825.0,0.033908
830.0,0.033968
835.0,0.033852
840.0,0.034097
845.0,0.03414
850.0,0.034022
855.0,0.03384
860.0,0.033672
865.0,0.03306
870.0,0.033498
875.0,0.033443
880.0,0.033409
885.0,0.033508
890.0,0.033501
895.0,0.033546
900.0,0.033592
905.0,0.033648
910.0,0.033833
915.0,0.033729
920.0,0.033798
925.0,0.034059
930.0,0.034157
935.0,0.034063
940.0,0.034266
945.0,0.034269
950.0,0.034071
955.0,0.03409
960.0,0.034479
965.0,0.034484
970.0,0.034504
975.0,0.034563
980.0,0.0345
985.0,0.034697
990.0,0.034609
995.0,0.034544
1000.0,0.034669
1005.0,0.034512
1010.0,0.034642
1015.0,0.034632
1020.0,0.034637
1025.0,0.034659
1030.0,0.034771
1035.0,0.03469
1040.0,0.034861
1045.0,0.03464
1050.0,0.034957
1055.0,0.034939
1060.0,0.035148
1065.0,0.034976
1070.0,0.034939
1075.0,0.034914
1080.0,0.034896
1085.0,0.034931
1090.0,0.034945
1095.0,0.03504
1100.0,0.035191
1105.0,0.035189
1110.0,0.035289
1115.0,0.035201
1120.0,0.035331
1125.0,0.035315
1130.0,0.035471
1135.0,0.035393
1140.0,0.035468
1145.0,0.035662
1150.0,0.035608
1155.0,0.035631
1160.0,0.03566
1165.0,0.035856
1170.0,0.035839
1175.0,0.035907
1180.0,0.035916
1185.0,0.035998
1190.0,0.036109
1195.0,0.036018
1200.0,0.036038
1205.0,0.036128
1210.0,0.036205
1215.0,0.036289
1220.0,0.036262
1225.0,0.036265
1230.0,0.036508
1235.0,0.036376
1240.0,0.03644
1245.0,0.036468
1250.0,0.036466
1255.0,0.036529
1260.0,0.036469
1265.0,0.036719
1270.0,0.036649
1275.0,0.036658
1280.0,0.036568
1285.0,0.036637
1290.0,0.036729
1295.0,0.03676
1300.0,0.036784
1305.0,0.036965
1310.0,0.037037
1315.0,0.037102
1320.0,0.037127
1325.0,0.037219
1330.0,0.037438
1335.0,0.037426
1340.0,0.03746
1345.0,0.037338
1350.0,0.037394
1355.0,0.037486
1360.0,0.037486
1365.0,0.037586
1370.0,0.037767
1375.0,0.037581
1380.0,0.037451
1385.0,0.037965
1390.0,0.037674
1395.0,0.038055
1400.0,0.038109
1405.0,0.038143
1410.0,0.038271
1415.0,0.038326
1420.0,0.038411
1425.0,0.038403
1430.0,0.038328
1435.0,0.038398
1440.0,0.038472
1445.0,0.03856
1450.0,0.038726
1455.0,0.03877
1460.0,0.038751
1465.0,0.038729
1470.0,0.038809
1475.0,0.038764
1480.0,0.038788
1485.0,0.038788
1490.0,0.039099
1495.0,0.039064
1500.0,0.039104
1505.0,0.039147
1510.0,0.039198
1515.0,0.03926
1520.0,0.03921
1525.0,0.039351
1530.0,0.03934
1535.0,0.039441
1540.0,0.039541
1545.0,0.039672
1550.0,0.039742
1555.0,0.039716
1560.0,0.039739
1565.0,0.039851
1570.0,0.039773
1575.0,0.040002
1580.0,0.039956
1585.0,0.040017
1590.0,0.040128
1595.0,0.040166
1600.0,0.040397
1605.0,0.040269
1610.0,0.04031
1615.0,0.040359
1620.0,0.040294
1625.0,0.040279
1630.0,0.040388
1635.0,0.04046
1640.0,0.040414
1645.0,0.040373
1650.0,0.040374
1655.0,0.040419
1660.0,0.04064
1665.0,0.040862
1670.0,0.040847
1675.0,0.041088
1680.0,0.041168
1685.0,0.04123
1690.0,0.041173
1695.0,0.041249
1700.0,0.041308
1705.0,0.041357
1710.0,0.04139
1715.0,0.041449
1720.0,0.041505
1725.0,0.041552
1730.0,0.041668
1735.0,0.041708
1740.0,0.041629
1745.0,0.041606
1750.0,0.041734
1755.0,0.041791
1760.0,0.041825
1765.0,0.041699
1770.0,0.041888
1775.0,0.041893
1780.0,0.041962
1785.0,0.042045
1790.0,0.041972
1795.0,0.042035
1800.0,0.042084
1805.0,0.042178
1810.0,0.0421
1815.0,0.042145
1820.0,0.042342
1825.0,0.04223
1830.0,0.042395
1835.0,0.042105
1840.0,0.042597
1845.0,0.04251
1850.0,0.042645
1855.0,0.042585
1860.0,0.042779
1865.0,0.042476
1870.0,0.042507
1875.0,0.043134
1880.0,0.0428
1885.0,0.042721
1890.0,0.042841
1895.0,0.042668
1900.0,0.04271
1905.0,0.043075
1910.0,0.043072
1915.0,0.042942
1920.0,0.043054
1925.0,0.043072
1930.0,0.043031
1935.0,0.042907
1940.0,0.04311
1945.0,0.043029
1950.0,0.043199
1955.0,0.04316
1960.0,0.043215
1965.0,0.043272
1970.0,0.043266
1975.0,0.043296
1980.0,0.04335
1985.0,0.043378
1990.0,0.043399
1995.0,0.043375
2000.0,0.043628
2005.0,0.043645
2010.0,0.043686
2015.0,0.04378
2020.0,0.043709
2025.0,0.043688
2030.0,0.043672
2035.0,0.043748
2040.0,0.043831
2045.0,0.043891
2050.0,0.043965
2055.0,0.043988
2060.0,0.043997
2065.0,0.044179
2070.0,0.044073
2075.0,0.044127
2080.0,0.044071
2085.0,0.044016
2090.0,0.044122
2095.0,0.044091
2100.0,0.044118
2105.0,0.044026
2110.0,0.044104
2115.0,0.044201
2120.0,0.044063
2125.0,0.044151
2130.0,0.043975
2135.0,0.044095
2140.0,0.044024
2145.0,0.044138
2150.0,0.044222
2155.0,0.044228
2160.0,0.044361
2165.0,0.044178
2170.0,0.044372
2175.0,0.044531
2180.0,0.04457
2185.0,0.044645
2190.0,0.044678
2195.0,0.044683
2200.0,0.044874
2205.0,0.044888
2210.0,0.044973
2215.0,0.045134
2220.0,0.04512
2225.0,0.045226
2230.0,0.045178
2235.0,0.045174
2240.0,0.045185
2245.0,0.045331
2250.0,0.045253
2255.0,0.045232
2260.0,0.045401
2265.0,0.045307
2270.0,0.045325
2275.0,0.045466
2280.0,0.045361
2285.0,0.045134
2290.0,0.045384
2295.0,0.045299
2300.0,0.045466
2305.0,0.045505
2310.0,0.045528
2315.0,0.045538
2320.0,0.045598
2325.0,0.045492
2330.0,0.045521
2335.0,0.045753
2340.0,0.04565
2345.0,0.045676
2350.0,0.045644
2355.0,0.045742
2360.0,0.04573
2365.0,0.045785
2370.0,0.04582
2375.0,0.045849
2380.0,0.045979
2385.0,0.046071
2390.0,0.046031
2395.0,0.045992
2400.0,0.046086
2405.0,0.045996
2410.0,0.046252
2415.0,0.046217
2420.0,0.046374
2425.0,0.046495
2430.0,0.0464
2435.0,0.046491
2440.0,0.046484
2445.0,0.046507
2450.0,0.046478
2455.0,0.046473
2460.0,0.04651
2465.0,0.04657
2470.0,0.046429
2475.0,0.046719
2480.0,0.046511
2485.0,0.046548
2490.0,0.046507
2495.0,0.046687
2500.0,0.046721
2502.0,0.046675
2503.2,0.046654
2504.41,0.04679
2505.62,0.046827
2506.83,0.04706
2508.05,0.04689
2509.26,0.04663
2510.48,0.046712
2511.69,0.046777
2512.91,0.04653
2514.13,0.0465
2515.35,0.04642
2516.57,0.046342
2517.79,0.046574
2519.02,0.046855
2520.24,0.046968
2521.47,0.046763
2522.69,0.04657
2523.92,0.046548
2525.15,0.046676
2526.38,0.046853
2527.61,0.046855
2528.85,0.047167
2530.08,0.047234
2531.32,0.046823
2532.55,0.046733
2533.79,0.046749
2535.03,0.046723
2536.27,0.046606
2537.51,0.046632
2538.75,0.046898
2540.0,0.046815
2541.24,0.046885
2542.49,0.047096
2543.74,0.047128
2544.99,0.047191
2546.24,0.047254
2547.49,0.047177
2548.74,0.047022
2549.99,0.046968
2551.25,0.04674
2552.5,0.04675
2553.76,0.04713
2555.02,0.047191
2556.28,0.046977
2557.54,0.046973
2558.8,0.04693
2560.07,0.046767
2561.33,0.04692
2562.6,0.047114
2563.86,0.04721
2565.13,0.04733
2566.4,0.047393
2567.67,0.047334
2568.95,0.047364
2570.22,0.047375
2571.5,0.047286
2572.77,0.047128
2574.05,0.046633
2575.33,0.046693
2576.61,0.047099
2577.89,0.047169
2579.17,0.047204
2580.46,0.047356
2581.74,0.047287
2583.03,0.047149
2584.31,0.047011
2585.6,0.046767
2586.89,0.047005
2588.19,0.047336
2589.48,0.047662
2590.77,0.047727
2592.07,0.047322
2593.36,0.046985
2594.66,0.046922
2595.96,0.047172
2597.26,0.04721
2598.56,0.047302
2599.87,0.047192
2601.17,0.047136
2602.48,0.047412
2603.78,0.047472
2605.09,0.047165
2606.4,0.046871
2607.71,0.047279
2609.03,0.047647
2610.34,0.047657
2611.66,0.047217
2612.97,0.047009
2614.29,0.047076
2615.61,0.046963
2616.93,0.047159
2618.25,0.047238
2619.57,0.047385
2620.9,0.047551
2622.22,0.04722
2623.55,0.047152
2624.88,0.047347
2626.21,0.047244
2627.54,0.04722
2628.87,0.047547
2630.21,0.047501
2631.54,0.047194
2632.88,0.047271
2634.21,0.047606
2635.55,0.047523
2636.89,0.04713
2638.24,0.047144
2639.58,0.047535
2640.92,0.047825
2642.27,0.047761
2643.62,0.04762
2644.97,0.047602
2646.32,0.047565
2647.67,0.047535
2649.02,0.047566
2650.38,0.047671
2651.73,0.047717
2653.09,0.047643
2654.45,0.0477
2655.81,0.047624
2657.17,0.047584
2658.53,0.047533
2659.89,0.047355
2661.26,0.047436
2662.63,0.04764
2664.0,0.047931
2665.36,0.047871
2666.74,0.047786
2668.11,0.047955
2669.48,0.048128
2670.86,0.047978
2672.23,0.047375
2673.61,0.047313
2674.99,0.047704
2676.37,0.047824
2677.76,0.04775
2679.14,0.04784
2680.52,0.047705
2681.91,0.047365
2683.3,0.04739
2684.69,0.047718
2686.08,0.04743
2687.47,0.047045
2688.87,0.047232
2690.26,0.047612
2691.66,0.047579
2693.06,0.047444
2694.46,0.047665
2695.86,0.048008
2697.26,0.047722
2698.66,0.047302
2700.07,0.047139
2701.48,0.047377
2702.89,0.047576
2704.3,0.047438
2705.71,0.047412
2707.12,0.04759
2708.53,0.047637
2709.95,0.047341
2711.37,0.047222
2712.79,0.047452
2714.21,0.047429
2715.63,0.047274
2717.05,0.047386
2718.48,0.047416
2719.9,0.047412
2721.33,0.047314
2722.76,0.047154
2724.19,0.046978
2725.62,0.046971
2727.06,0.047402
2728.49,0.047288
2729.93,0.046818
2731.37,0.046732
2732.81,0.046689
2734.25,0.046799
2735.69,0.046821
2737.14,0.04666
2738.58,0.046733
2740.03,0.046581
2741.48,0.046676
2742.93,0.046661
2744.38,0.046626
2745.83,0.046654
2747.29,0.046441
2748.75,0.04618
2750.2,0.045946
2751.66,0.045908
2753.13,0.046081
2754.59,0.046261
2756.05,0.046226
2757.52,0.046017
2758.99,0.045947
2760.46,0.045776
2761.93,0.045582
2763.4,0.045381
2764.87,0.04534
2766.35,0.045307
2767.82,0.045251
2769.3,0.045051
2770.78,0.045143
2772.26,0.045192
2773.75,0.045187
2775.23,0.045107
2776.72,0.044893
2778.21,0.044772
2779.7,0.044969
2781.19,0.045103
2782.68,0.045125
2784.18,0.045053
2785.67,0.044794
2787.17,0.044795
2788.67,0.04478
2790.17,0.044872
2791.67,0.044959
2793.18,0.044832
2794.68,0.044804
2796.19,0.044706
2797.7,0.04482
2799.21,0.044884
2800.72,0.044715
2802.24,0.044722
2803.75,0.044694
2805.27,0.044468
2806.79,0.044287
2808.31,0.044424
2809.83,0.044551
2811.35,0.044569
2812.88,0.044502
2814.41,0.044441
2815.93,0.044284
2817.46,0.044323
2819.0,0.044256
2820.53,0.04412
2822.07,0.044277
2823.6,0.044437
2825.14,0.044489
2826.68,0.044578
2828.22,0.044627
2829.77,0.044515
2831.31,0.04463
2832.86,0.044523
2834.41,0.044213
2835.96,0.0445
2837.51,0.044624
2839.07,0.044518
2840.62,0.044444
2842.18,0.044374
2843.74,0.044435
2845.3,0.044192
2846.86,0.044327
2848.43,0.044501
2849.99,0.044439
2851.56,0.044419
2853.13,0.044389
2854.7,0.044289
2856.27,0.044186
2857.85,0.044254
2859.42,0.044463
2861.0,0.044381
2862.58,0.044383
2864.16,0.04437
2865.75,0.044306
2867.33,0.044302
2868.92,0.044336
2870.51,0.044327
2872.1,0.044434
2873.69,0.044388
2875.28,0.044369
2876.88,0.044427
2878.48,0.044364
2880.07,0.044476
2881.68,0.04459
2883.28,0.044709
2884.88,0.044672
2886.49,0.044603
2888.1,0.044588
2889.71,0.044492
2891.32,0.044445
2892.93,0.044655
2894.55,0.04474
2896.16,0.044723
2897.78,0.044705
2899.4,0.044695
2901.03,0.044611
2902.65,0.044588
2904.28,0.044551
2905.91,0.044608
2907.54,0.044675
2909.17,0.044604
2910.8,0.044497
2912.44,0.044536
2914.07,0.044668
2915.71,0.044612
2917.35,0.044715
2918.99,0.044936
2920.64,0.044887
2922.29,0.044583
2923.93,0.044531
2925.58,0.044809
2927.24,0.044883
2928.89,0.044824
2930.55,0.044736
2932.2,0.044715
2933.86,0.04468
2935.52,0.044755
2937.19,0.044773
2938.85,0.04464
2940.52,0.044646
2942.19,0.044857
2943.86,0.044891
2945.53,0.044698
2947.21,0.044522
2948.88,0.044496
2950.56,0.044582
2952.24,0.044751
2953.92,0.044808
2955.61,0.044609
2957.29,0.04461
2958.98,0.044941
2960.67,0.04512
2962.36,0.045033
2964.06,0.044759
2965.75,0.044815
2967.45,0.044929
2969.15,0.044866
2970.85,0.044951
2972.55,0.045023
2974.26,0.044953
2975.97,0.044983
2977.68,0.045101
2979.39,0.045128
2981.1,0.045083
2982.82,0.045119
2984.53,0.045185
2986.25,0.045144
2987.97,0.045112
2989.7,0.045198
2991.42,0.045082
2993.15,0.045252
2994.88,0.045267
2996.61,0.044955
2998.34,0.045013
3000.08,0.04513
3001.82,0.045167
3003.55,0.045149
3005.3,0.045127
3007.04,0.045201
3008.78,0.045255
3010.53,0.045319
3012.28,0.045334
3014.03,0.045264
3015.79,0.045295
3017.54,0.045504
3019.3,0.045509
3021.06,0.045452
3022.82,0.04548
3024.58,0.045489
3026.35,0.045494
3028.12,0.045604
3029.89,0.045712
3031.66,0.045791
3033.43,0.045778
3035.21,0.045765
3036.99,0.045667
3038.77,0.04558
3040.55,0.045487
3042.33,0.04539
3044.12,0.045306
3045.91,0.045436
3047.7,0.045431
3049.49,0.045427
3051.29,0.045561
3053.08,0.045744
3054.88,0.045603
3056.68,0.045757
3058.49,0.045799
3060.29,0.045736
3062.1,0.045786
3063.91,0.045781
3065.72,0.045763
3067.54,0.045686
3069.35,0.045775
3071.17,0.045875
3072.99,0.045772
3074.81,0.045803
3076.64,0.045843
3078.47,0.045888
3080.29,0.045865
3082.13,0.045707
3083.96,0.045774
3085.79,0.045803
3087.63,0.045751
3089.47,0.045877
3091.31,0.045983
3093.16,0.045988
3095.01,0.046123
3096.85,0.046236
3098.71,0.046157
3100.56,0.046021
3102.41,0.046011
3104.27,0.04617
3106.13,0.046319
3107.99,0.046197
3109.86,0.046031
3111.73,0.046166
3113.59,0.046406
3115.47,0.046353
3117.34,0.046036
3119.21,0.046013
3121.09,0.046205
3122.97,0.046283
3124.86,0.046358
3126.74,0.046418
3128.63,0.046281
3130.52,0.046287
3132.41,0.046431
3134.3,0.046528
3136.2,0.046691
3138.1,0.046725
3140.0,0.046719
3141.9,0.046628
3143.81,0.046519
3145.71,0.046575
3147.62,0.046626
3149.54,0.046562
3151.45,0.04675
3153.37,0.046858
3155.29,0.046864
3157.21,0.046888
3159.13,0.046816
3161.06,0.046712
3162.99,0.046744
3164.92,0.04678
3166.85,0.046851
3168.79,0.046878
3170.72,0.046759
3172.67,0.046805
3174.61,0.046955
3176.55,0.046963
3178.5,0.047009
3180.45,0.04691
3182.4,0.046853
3184.36,0.047048
3186.32,0.047125
3188.27,0.047185
3190.24,0.047163
3192.2,0.046926
3194.17,0.046952
3196.14,0.047033
3198.11,0.047133
3200.08,0.047407
3202.06,0.047506
3204.04,0.04741
3206.02,0.047248
3208.0,0.047253
3209.99,0.047418
3211.98,0.047539
3213.97,0.047432
3215.96,0.047291
3217.96,0.047189
3219.96,0.047328
3221.96,0.047524
3223.96,0.047408
3225.97,0.047231
3227.98,0.047468
3229.99,0.04764
3232.0,0.047588
3234.02,0.047409
3236.04,0.047336
3238.06,0.047397
3240.08,0.047402
3242.11,0.047569
3244.14,0.047697
3246.17,0.047767
3248.2,0.047825
3250.24,0.047731
3252.28,0.047559
3254.32,0.047514
3256.37,0.047466
3258.41,0.047542
3260.46,0.047623
3262.51,0.047691
3264.57,0.047775
3266.63,0.047942
3268.69,0.047928
3270.75,0.047896
3272.81,0.047978
3274.88,0.048018
3276.95,0.047967
3279.02,0.04801
3281.1,0.048095
3283.18,0.048072
3285.26,0.048167
3287.34,0.048243
3289.43,0.048142
3291.51,0.048001
3293.61,0.048044
3295.7,0.04819
3297.8,0.048259
3299.9,0.048147
3302.0,0.047936
3304.1,0.047963
3306.21,0.048093
3308.32,0.048063
3310.43,0.048038
3312.55,0.048187
3314.66,0.04838
3316.79,0.048313
3318.91,0.048165
3321.03,0.048328
3323.16,0.048522
3325.29,0.048508
3327.43,0.048262
3329.57,0.048266
3331.71,0.048386
3333.85,0.048402
3335.99,0.048468
3338.14,0.048619
3340.29,0.048646
3342.45,0.048545
3344.6,0.048696
3346.76,0.048756
3348.92,0.048501
3351.09,0.048393
3353.26,0.048469
3355.43,0.048431
3357.6,0.048467
3359.78,0.048615
3361.96,0.048693
3364.14,0.048703
3366.32,0.048572
3368.51,0.04848
3370.7,0.048593
3372.89,0.048784
3375.09,0.048877
3377.29,0.04879
3379.49,0.04855
3381.69,0.048524
3383.9,0.048627
3386.11,0.048738
3388.32,0.04888
3390.54,0.048988
3392.76,0.049076
3394.98,0.049024
3397.21,0.04905
3399.43,0.048885
3401.66,0.048831
3403.9,0.049037
3406.13,0.04901
3408.37,0.048956
3410.61,0.048986
3412.86,0.048975
3415.11,0.048952
3417.36,0.048877
3419.61,0.048842
3421.87,0.048983
3424.13,0.049187
3426.39,0.049183
3428.66,0.04925
3430.93,0.049401
3433.2,0.049227
3435.48,0.049169
3437.76,0.049149
3440.04,0.049156
3442.32,0.049176
3444.61,0.049294
3446.9,0.049365
3449.19,0.049229
3451.49,0.049142
3453.79,0.049269
3456.09,0.049323
3458.4,0.049344
3460.7,0.049512
3463.02,0.049579
3465.33,0.04951
3467.65,0.049446
3469.97,0.049425
3472.29,0.049487
3474.62,0.049557
3476.95,0.049351
3479.29,0.049284
3481.62,0.049425
3483.96,0.049482
3486.3,0.04958
3488.65,0.049631
3491.0,0.049652
3493.35,0.049662
3495.71,0.049696
3498.07,0.049609
3500.43,0.049674
3502.79,0.049707
3505.16,0.049706
3507.53,0.049602
3509.91,0.049457
3512.29,0.049529
3514.67,0.049822
3517.05,0.049859
3519.44,0.049781
3521.83,0.049808
3524.23,0.049812
3526.62,0.049665
3529.02,0.049751
3531.43,0.049963
3533.83,0.049879
3536.24,0.049871
3538.66,0.049965
3541.08,0.049933
3543.5,0.049899
3545.92,0.049938
3548.35,0.050036
3550.78,0.050165
3553.21,0.050234
3555.65,0.050233
3558.09,0.050231
3560.53,0.050037
3562.98,0.050008
3565.43,0.050172
3567.88,0.050215
3570.34,0.050108
3572.8,0.050074
3575.27,0.050146
3577.73,0.050243
3580.2,0.050221
3582.68,0.050177
3585.16,0.050249
3587.64,0.050249
3590.12,0.050188
3592.61,0.050285
3595.1,0.050322
3597.6,0.050334
3600.09,0.050366
3602.6,0.050343
3605.1,0.050374
3607.61,0.050391
3610.12,0.050398
3612.64,0.050513
3615.16,0.050543
3617.68,0.050471
3620.21,0.050459
3622.74,0.050463
3625.27,0.050592
3627.81,0.050645
3630.35,0.050531
3632.89,0.050496
3635.44,0.050463
3637.99,0.050408
3640.54,0.050463
3643.1,0.050479
3645.66,0.050444
3648.23,0.0505
3650.8,0.05051
3653.37,0.050559
3655.95,0.050617
3658.53,0.050686
3661.11,0.05065
3663.7,0.05067
3666.29,0.050704
3668.89,0.050641
3671.48,0.050691
3674.09,0.050734
3676.69,0.05065
3679.3,0.050721
3681.91,0.050745
3684.53,0.050851
3687.15,0.050843
3689.78,0.050777
3692.4,0.050701
3695.04,0.050698
3697.67,0.050758
3700.31,0.050796
3702.95,0.050657
3705.6,0.050618
3708.25,0.050782
3710.91,0.050903
3713.56,0.050919
3716.23,0.050852
3718.89,0.050782
3721.56,0.050849
3724.23,0.050847
3726.91,0.050767
3729.59,0.050826
3732.28,0.051074
3734.97,0.051061
3737.66,0.050935
3740.36,0.050979
3743.06,0.050997
3745.76,0.050948
