Database of Origin,University of Winnipeg Spectrophotometer Facility
Sample Description,16.12. Meteorites - Ureilites 16.12.3. Pierre Hudon (JSC) samples (b) Nicolet FTIR spectra from RELAB
Other Information,bmraph019
Date Added,2018-07-23 23:49:07.466866

Data ID,RLA_MET2_9_10       
Sample ID,Y791538
Mineral Name,ureilite
Grain Size,<75 um
Viewing Geometry,30/30
Resolution,0.8-121 nm

Wavelength
2000.5,0.04508
2001.3,0.045
2002.1,0.0444
2002.8,0.04421
2003.6,0.04456
2004.4,0.04492
2005.2,0.04496
2005.9,0.04486
2006.7,0.04485
2007.5,0.04503
2008.3,0.04524
2009.0,0.04547
2009.8,0.04555
2010.6,0.04547
2011.4,0.04553
2012.2,0.04523
2012.9,0.04538
2013.7,0.04573
2014.5,0.04603
2015.3,0.04587
2016.1,0.04553
2016.8,0.04539
2017.6,0.0454
2018.4,0.04559
2019.2,0.04565
2020.0,0.04573
2020.8,0.04561
2021.6,0.04557
2022.4,0.04609
2023.2,0.04648
2023.9,0.0468
2024.7,0.04698
2025.5,0.0466
2026.3,0.04649
2027.1,0.047
2027.9,0.04715
2028.7,0.04685
2029.5,0.04665
2030.3,0.04669
2031.1,0.04673
2031.9,0.04698
2032.7,0.04702
2033.5,0.04672
2034.3,0.04679
2035.1,0.04704
2035.9,0.04711
2036.7,0.04714
2037.5,0.04731
2038.3,0.04737
2039.1,0.04741
2039.9,0.0476
2040.7,0.04754
2041.5,0.04721
2042.3,0.04742
2043.1,0.04779
2043.9,0.04793
2044.7,0.04777
2045.5,0.04773
2046.3,0.04801
2047.1,0.04852
2047.9,0.04846
2048.7,0.04818
2049.5,0.04827
2050.4,0.04825
2051.2,0.04817
2052.0,0.04836
2052.8,0.04844
2053.6,0.0482
2054.4,0.0481
2055.2,0.04826
2056.0,0.04853
2056.9,0.04873
2057.7,0.04866
2058.5,0.04857
2059.3,0.04872
2060.1,0.04914
2060.9,0.04931
2061.8,0.049
2062.6,0.04897
2063.4,0.04915
2064.2,0.04907
2065.1,0.04904
2065.9,0.04903
2066.7,0.0491
2067.5,0.04931
2068.3,0.04934
2069.2,0.04921
2070.0,0.04932
2070.8,0.04949
2071.6,0.04962
2072.5,0.04954
2073.3,0.04938
2074.1,0.04941
2075.0,0.0495
2075.8,0.04962
2076.6,0.04991
2077.5,0.05015
2078.3,0.04992
2079.1,0.04993
2080.0,0.05015
2080.8,0.05013
2081.6,0.04987
2082.5,0.0502
2083.3,0.0508
2084.1,0.05079
2085.0,0.05061
2085.8,0.05049
2086.7,0.05032
2087.5,0.05017
2088.3,0.05026
2089.2,0.0505
2090.0,0.05083
2090.9,0.05109
2091.7,0.05097
2092.6,0.05086
2093.4,0.05099
2094.2,0.05101
2095.1,0.05102
2095.9,0.05131
2096.8,0.05146
2097.6,0.05125
2098.5,0.05135
2099.3,0.0515
2100.2,0.05164
2101.0,0.05152
2101.9,0.0512
2102.7,0.05151
2103.6,0.05166
2104.4,0.05169
2105.3,0.05186
2106.1,0.05208
2107.0,0.05205
2107.9,0.05203
2108.7,0.05198
2109.6,0.05215
2110.4,0.05211
2111.3,0.05213
2112.2,0.05258
2113.0,0.05286
2113.9,0.05279
2114.7,0.05271
2115.6,0.05251
2116.5,0.05272
2117.3,0.05303
2118.2,0.05299
2119.1,0.05286
2119.9,0.05282
2120.8,0.05272
2121.7,0.05289
2122.5,0.05307
2123.4,0.053
2124.3,0.05294
2125.1,0.05283
2126.0,0.0529
2126.9,0.05304
2127.8,0.05322
2128.6,0.05334
2129.5,0.05349
2130.4,0.05354
2131.3,0.05334
2132.1,0.05322
2133.0,0.05342
2133.9,0.0536
2134.8,0.05361
2135.6,0.05352
2136.5,0.05351
2137.4,0.05374
2138.3,0.05387
2139.2,0.05388
2140.1,0.05401
2140.9,0.0541
2141.8,0.05401
2142.7,0.05414
2143.6,0.05416
2144.5,0.05411
2145.4,0.05427
2146.3,0.05427
2147.1,0.05423
2148.0,0.05434
2148.9,0.05441
2149.8,0.05447
2150.7,0.0544
2151.6,0.05438
2152.5,0.05444
2153.4,0.05457
2154.3,0.05479
2155.2,0.05484
2156.1,0.05451
2157.0,0.05462
2157.9,0.05495
2158.8,0.05489
2159.7,0.05494
2160.6,0.05485
2161.5,0.05479
2162.4,0.05461
2163.3,0.05464
2164.2,0.05486
2165.1,0.05496
2166.0,0.05516
2166.9,0.05524
2167.8,0.05512
2168.7,0.05508
2169.6,0.05534
2170.5,0.05547
2171.4,0.05552
2172.3,0.05556
2173.3,0.05553
2174.2,0.05532
2175.1,0.0554
2176.0,0.05555
2176.9,0.05555
2177.8,0.05562
2178.7,0.05575
2179.6,0.05592
2180.6,0.05604
2181.5,0.05607
2182.4,0.05604
2183.3,0.056
2184.2,0.05601
2185.1,0.05598
2186.1,0.05597
2187.0,0.05617
2187.9,0.05624
2188.8,0.05638
2189.8,0.05643
2190.7,0.05639
2191.6,0.05629
2192.6,0.05629
2193.5,0.05632
2194.4,0.05625
2195.3,0.05642
2196.3,0.05655
2197.2,0.05652
2198.1,0.0565
2199.1,0.05651
2200.0,0.0567
2200.9,0.05675
2201.9,0.05672
2202.8,0.05681
2203.7,0.0568
2204.7,0.05689
2205.6,0.05702
2206.5,0.05699
2207.5,0.05699
2208.4,0.05701
2209.4,0.05686
2210.3,0.05698
2211.3,0.05702
2212.2,0.05698
2213.1,0.05719
2214.1,0.0574
2215.0,0.05749
2216.0,0.05752
2216.9,0.0574
2217.9,0.05724
2218.8,0.05742
2219.8,0.05759
2220.7,0.05767
2221.7,0.05769
2222.6,0.05764
2223.6,0.05764
2224.5,0.05775
2225.5,0.05779
2226.4,0.05771
2227.4,0.05764
2228.4,0.0578
2229.3,0.058
2230.3,0.05803
2231.2,0.05794
2232.2,0.05792
2233.1,0.05799
2234.1,0.05817
2235.1,0.05806
2236.0,0.05814
2237.0,0.05827
2238.0,0.05841
2238.9,0.05863
2239.9,0.05866
2240.9,0.05841
2241.8,0.05833
2242.8,0.05842
2243.8,0.05843
2244.8,0.05845
2245.7,0.05855
2246.7,0.05869
2247.7,0.05882
2248.6,0.05874
2249.6,0.05875
2250.6,0.05881
2251.6,0.05879
2252.6,0.0588
2253.5,0.05881
2254.5,0.05884
2255.5,0.05898
2256.5,0.05898
2257.5,0.05904
2258.4,0.05896
2259.4,0.05897
2260.4,0.05896
2261.4,0.05908
2262.4,0.05916
2263.4,0.05915
2264.4,0.05926
2265.4,0.05934
2266.3,0.05938
2267.3,0.05947
2268.3,0.05956
2269.3,0.05966
2270.3,0.05965
2271.3,0.05957
2272.3,0.05955
2273.3,0.0595
2274.3,0.0595
2275.3,0.05967
2276.3,0.05973
2277.3,0.05957
2278.3,0.0597
2279.3,0.05987
2280.3,0.06001
2281.3,0.06016
2282.3,0.06009
2283.3,0.05999
2284.3,0.05996
2285.3,0.06001
2286.3,0.06002
2287.3,0.06003
2288.4,0.06022
2289.4,0.06034
2290.4,0.06015
2291.4,0.06004
2292.4,0.06005
2293.4,0.06014
2294.4,0.06026
2295.4,0.06039
2296.5,0.06052
2297.5,0.06059
2298.5,0.06066
2299.5,0.06073
2300.5,0.06073
2301.6,0.06068
2302.6,0.06057
2303.6,0.06049
2304.6,0.06056
2305.6,0.06063
2306.7,0.0607
2307.7,0.06078
2308.7,0.06087
2309.8,0.06095
2310.8,0.06084
2311.8,0.06084
2312.9,0.06092
2313.9,0.06098
2314.9,0.06097
2315.9,0.06094
2317.0,0.06102
2318.0,0.06118
2319.1,0.06128
2320.1,0.06123
2321.1,0.06127
2322.2,0.06147
2323.2,0.06148
2324.3,0.06141
2325.3,0.06141
2326.3,0.06153
2327.4,0.06165
2328.4,0.06156
2329.5,0.06143
2330.5,0.06135
2331.6,0.06145
2332.6,0.06165
2333.7,0.06172
2334.7,0.06171
2335.8,0.06167
2336.8,0.06177
2337.9,0.06172
2338.9,0.06164
2340.0,0.06178
2341.0,0.06187
2342.1,0.06184
2343.2,0.06181
2344.2,0.06184
2345.3,0.06192
2346.3,0.06199
2347.4,0.06211
2348.5,0.06211
2349.5,0.06201
2350.6,0.06215
2351.7,0.0623
2352.7,0.06232
2353.8,0.06237
2354.9,0.06226
2355.9,0.06235
2357.0,0.06246
2358.1,0.06244
2359.1,0.06238
2360.2,0.06247
2361.3,0.06259
2362.4,0.0626
2363.4,0.06259
2364.5,0.06261
2365.6,0.06259
2366.7,0.06262
2367.8,0.06258
2368.9,0.06251
2369.9,0.06262
2371.0,0.06283
2372.1,0.06286
2373.2,0.06282
2374.3,0.06281
2375.4,0.06288
2376.4,0.0629
2377.5,0.06283
2378.6,0.06285
2379.7,0.06296
2380.8,0.063
2381.9,0.06307
2383.0,0.06308
2384.1,0.0631
2385.2,0.06312
2386.3,0.06318
2387.4,0.06315
2388.5,0.06319
2389.6,0.06332
2390.7,0.06334
2391.8,0.06338
2392.9,0.06331
2394.0,0.06332
2395.1,0.06342
2396.2,0.0633
2397.3,0.06321
2398.4,0.06333
2399.6,0.06343
2400.7,0.06356
2401.8,0.06357
2402.9,0.06367
2404.0,0.06374
2405.1,0.06364
2406.2,0.06371
2407.4,0.06387
2408.5,0.06386
2409.6,0.06378
2410.7,0.06382
2411.8,0.06377
2412.9,0.06382
2414.1,0.06393
2415.2,0.06398
2416.3,0.06411
2417.4,0.06408
2418.6,0.06402
2419.7,0.06414
2420.8,0.06414
2422.0,0.0641
2423.1,0.06417
2424.2,0.06417
2425.4,0.06422
2426.5,0.06428
2427.6,0.06435
2428.8,0.06436
2429.9,0.06444
2431.1,0.06441
2432.2,0.06428
2433.3,0.06442
2434.5,0.0645
2435.6,0.06445
2436.8,0.06439
2437.9,0.06443
2439.1,0.06449
2440.2,0.0645
2441.4,0.06456
2442.5,0.06465
2443.6,0.06467
2444.8,0.06468
2446.0,0.0648
2447.1,0.06491
2448.3,0.0649
2449.4,0.06489
2450.6,0.06483
2451.7,0.06486
2452.9,0.06507
2454.1,0.06517
2455.2,0.06505
2456.4,0.06492
2457.6,0.06491
2458.7,0.06498
2459.9,0.06506
2461.1,0.06513
2462.2,0.06525
2463.4,0.06524
2464.6,0.06517
2465.7,0.06524
2466.9,0.06541
2468.1,0.0654
2469.3,0.06526
2470.4,0.06529
2471.6,0.06535
2472.8,0.06531
2474.0,0.06531
2475.1,0.06532
2476.3,0.06534
2477.5,0.06546
2478.7,0.06563
2479.9,0.06569
2481.1,0.0656
2482.3,0.06561
2483.4,0.06571
2484.6,0.06572
2485.8,0.06569
2487.0,0.06561
2488.2,0.06554
2489.4,0.06563
2490.6,0.0657
2491.8,0.06576
2493.0,0.06582
2494.2,0.06583
2495.4,0.06581
2496.6,0.06592
2497.8,0.06607
2499.0,0.06606
2500.2,0.06594
2501.4,0.06593
2502.6,0.06603
2503.8,0.06608
2505.0,0.06611
2506.3,0.06615
2507.5,0.06608
2508.7,0.06607
2509.9,0.06609
2511.1,0.06615
2512.3,0.0663
2513.5,0.06632
2514.8,0.06623
2516.0,0.06618
2517.2,0.06622
2518.4,0.06631
2519.6,0.06632
2520.9,0.06632
2522.1,0.06634
2523.3,0.06641
2524.6,0.06645
2525.8,0.0665
2527.0,0.06654
2528.3,0.06654
2529.5,0.06661
2530.7,0.06665
2531.9,0.06665
2533.2,0.06665
2534.4,0.06665
2535.7,0.06668
2536.9,0.06673
2538.1,0.06682
2539.4,0.06676
2540.6,0.06665
2541.9,0.06666
2543.1,0.0668
2544.4,0.06688
2545.6,0.06689
2546.9,0.06688
2548.1,0.06691
2549.4,0.06698
2550.6,0.067
2551.9,0.06702
2553.1,0.06702
2554.4,0.06694
2555.7,0.06694
2556.9,0.06699
2558.2,0.06704
2559.4,0.06708
2560.7,0.06727
2562.0,0.06737
2563.2,0.06725
2564.5,0.06729
2565.8,0.06726
2567.1,0.06725
2568.3,0.06729
2569.6,0.06729
2570.9,0.06734
2572.1,0.06735
2573.4,0.06738
2574.7,0.06749
2576.0,0.06754
2577.3,0.06751
2578.5,0.06749
2579.8,0.0675
2581.1,0.06758
2582.4,0.06765
2583.7,0.06772
2585.0,0.06768
2586.3,0.06769
2587.5,0.06773
2588.8,0.06772
2590.1,0.0677
2591.4,0.06764
2592.7,0.06771
2594.0,0.06795
2595.3,0.06811
2596.6,0.06783
2597.9,0.06765
2599.2,0.06772
2600.5,0.06786
2601.8,0.06793
2603.1,0.06795
2604.4,0.06808
2605.8,0.06814
2607.1,0.06809
2608.4,0.06809
2609.7,0.06808
2611.0,0.06805
2612.3,0.06796
2613.6,0.06795
2614.9,0.06805
2616.3,0.06821
2617.6,0.0682
2618.9,0.06816
2620.2,0.06832
2621.6,0.06828
2622.9,0.0682
2624.2,0.06819
2625.5,0.06825
2626.9,0.06836
2628.2,0.06831
2629.5,0.06836
2630.9,0.0684
2632.2,0.06829
2633.5,0.06838
2634.9,0.06841
2636.2,0.06836
2637.6,0.06832
2638.9,0.06833
2640.2,0.06837
2641.6,0.06842
2642.9,0.06839
2644.3,0.06841
2645.6,0.06846
2647.0,0.06839
2648.3,0.06841
2649.7,0.06843
2651.0,0.06843
2652.4,0.06854
2653.8,0.06859
2655.1,0.06863
2656.5,0.06864
2657.8,0.0686
2659.2,0.06869
2660.6,0.06863
2661.9,0.06859
2663.3,0.0687
2664.7,0.06892
2666.0,0.06895
2667.4,0.06879
2668.8,0.06861
2670.1,0.06875
2671.5,0.06873
2672.9,0.06853
2674.3,0.0685
2675.7,0.06856
2677.0,0.0687
2678.4,0.06873
2679.8,0.06868
2681.2,0.06854
2682.6,0.06854
2684.0,0.06856
2685.4,0.06857
2686.8,0.06857
2688.1,0.06857
2689.5,0.06861
2690.9,0.06866
2692.3,0.0687
2693.7,0.06874
2695.1,0.06862
2696.5,0.06854
2697.9,0.06846
2699.3,0.06842
2700.8,0.06855
2702.1,0.06858
2703.6,0.06851
2705.0,0.06845
2706.4,0.06839
2707.8,0.06848
2709.2,0.06851
2710.6,0.06851
2712.1,0.0684
2713.5,0.06827
2714.9,0.06823
2716.3,0.06819
2717.7,0.06818
2719.2,0.06821
2720.6,0.06825
2722.0,0.06798
2723.4,0.06797
2724.9,0.06803
2726.3,0.06781
2727.7,0.06761
2729.2,0.06757
2730.6,0.06753
2732.1,0.06744
2733.5,0.06744
2734.9,0.06741
2736.4,0.06712
2737.8,0.06696
2739.3,0.06693
2740.7,0.06682
2742.2,0.06665
2743.6,0.06643
2745.1,0.06634
2746.5,0.06617
2748.0,0.06594
2749.4,0.06585
2750.9,0.06575
2752.4,0.06557
2753.8,0.06541
2755.3,0.06534
2756.7,0.06504
2758.2,0.06476
2759.7,0.0646
2761.1,0.06451
2762.6,0.06445
2764.1,0.06427
2765.6,0.06406
2767.0,0.06387
2768.5,0.06367
2770.0,0.06351
2771.5,0.06335
2773.0,0.06312
2774.4,0.06288
2775.9,0.06271
2777.4,0.06256
2778.9,0.06246
2780.4,0.06234
2781.9,0.06215
2783.4,0.06193
2784.9,0.06173
2786.4,0.06159
2787.9,0.06144
2789.4,0.06122
2790.9,0.061
2792.4,0.06081
2793.9,0.06067
2795.4,0.06056
2796.9,0.06044
2798.4,0.06027
2799.9,0.06016
2801.4,0.06001
2802.9,0.0599
2804.4,0.05974
2806.0,0.05959
2807.5,0.05951
2809.0,0.05938
2810.5,0.05916
2812.1,0.05901
2813.6,0.05892
2815.1,0.05878
2816.6,0.05868
2818.2,0.05865
2819.7,0.05849
2821.2,0.05825
2822.8,0.05807
2824.3,0.058
2825.9,0.05788
2827.4,0.05774
2828.9,0.0576
2830.5,0.05741
2832.0,0.05727
2833.6,0.05719
2835.1,0.05712
2836.7,0.057
2838.2,0.05683
2839.8,0.05664
2841.3,0.0565
2842.9,0.0564
2844.4,0.05626
2846.0,0.05612
2847.6,0.05601
2849.1,0.05591
2850.7,0.05577
2852.3,0.05568
2853.8,0.05566
2855.4,0.05556
2857.0,0.05545
2858.6,0.05532
2860.1,0.05523
2861.7,0.05521
2863.3,0.05516
2864.9,0.05506
2866.5,0.05503
2868.1,0.05495
2869.6,0.05485
2871.2,0.05479
2872.8,0.05467
2874.4,0.05455
2876.0,0.05449
2877.6,0.05452
2879.2,0.0545
2880.8,0.0544
2882.4,0.0543
2884.0,0.05431
2885.6,0.05425
2887.2,0.05424
2888.8,0.05426
2890.4,0.05424
2892.0,0.0542
2893.6,0.05416
2895.3,0.05414
2896.9,0.05411
2898.5,0.05412
2900.1,0.05409
2901.8,0.05399
2903.4,0.05394
2905.0,0.05389
2906.6,0.05386
2908.3,0.05391
2909.9,0.05388
2911.5,0.05381
2913.2,0.05383
2914.8,0.05382
2916.4,0.05376
2918.1,0.05377
2919.7,0.05377
2921.4,0.05373
2923.0,0.05366
2924.7,0.05364
2926.3,0.05367
2928.0,0.05371
2929.6,0.05369
2931.3,0.0536
2932.9,0.05351
2934.6,0.05353
2936.3,0.05359
2937.9,0.05361
2939.6,0.05358
2941.3,0.05354
2942.9,0.05355
2944.6,0.05355
2946.3,0.05351
2947.9,0.05349
2949.6,0.05354
2951.3,0.05358
2953.0,0.05356
2954.7,0.05352
2956.3,0.0535
2958.0,0.05357
2959.7,0.05361
2961.4,0.05357
2963.1,0.05357
2964.8,0.05362
2966.5,0.05367
2968.2,0.0536
2969.9,0.05351
2971.6,0.05352
2973.3,0.0536
2975.0,0.05369
2976.7,0.05372
2978.4,0.05375
2980.1,0.05372
2981.9,0.05368
2983.6,0.05369
2985.3,0.05376
2987.0,0.05379
2988.7,0.05378
2990.4,0.05373
2992.2,0.05379
2993.9,0.05384
2995.6,0.05384
2997.4,0.05386
2999.1,0.05389
3000.8,0.05393
3002.6,0.05398
3004.3,0.05405
3006.1,0.05407
3007.8,0.05415
3009.5,0.05416
3011.3,0.05411
3013.0,0.05413
3014.8,0.0542
3016.5,0.05423
3018.3,0.05419
3020.1,0.05423
3021.8,0.05427
3023.6,0.05429
3025.3,0.05431
3027.1,0.05434
3028.9,0.05442
3030.6,0.05448
3032.4,0.05447
3034.2,0.05447
3036.0,0.05451
3037.7,0.05455
3039.5,0.05456
3041.3,0.05458
3043.1,0.05463
3044.9,0.05468
3046.7,0.05468
3048.5,0.05466
3050.3,0.05468
3052.1,0.05474
3053.8,0.05473
3055.6,0.0547
3057.4,0.05472
3059.3,0.05478
3061.1,0.05484
3062.9,0.05483
3064.7,0.05483
3066.5,0.05488
3068.3,0.0549
3070.1,0.0549
3071.9,0.05493
3073.8,0.05498
3075.6,0.05505
3077.4,0.0551
3079.2,0.05509
3081.1,0.05508
3082.9,0.05512
3084.7,0.05515
3086.6,0.05515
3088.4,0.05518
3090.2,0.05521
3092.1,0.05524
3093.9,0.05524
3095.8,0.05528
3097.6,0.05534
3099.5,0.05534
3101.3,0.05537
3103.2,0.05544
3105.1,0.05546
3106.9,0.0555
3108.8,0.05557
3110.6,0.0556
3112.5,0.05562
3114.4,0.05564
3116.2,0.05571
3118.1,0.05576
3120.0,0.05581
3121.9,0.05585
3123.8,0.05588
3125.6,0.05591
3127.5,0.05598
3129.4,0.05603
3131.3,0.05607
3133.2,0.05614
3135.1,0.05621
3137.0,0.05629
3138.9,0.05633
3140.8,0.05637
3142.7,0.05644
3144.6,0.05651
3146.5,0.05658
3148.4,0.05665
3150.3,0.05667
3152.2,0.05666
3154.1,0.05675
3156.1,0.0569
3158.0,0.057
3159.9,0.05703
3161.8,0.0571
3163.8,0.05719
3165.7,0.05722
3167.6,0.05722
3169.6,0.0573
3171.5,0.05738
3173.5,0.05745
3175.4,0.05755
3177.3,0.05763
3179.3,0.05773
3181.2,0.05778
3183.2,0.05782
3185.1,0.05789
3187.1,0.05797
3189.1,0.05805
3191.0,0.05815
3193.0,0.05822
3195.0,0.05828
3196.9,0.05836
3198.9,0.05846
3200.9,0.05855
3202.9,0.05863
3204.8,0.05872
3206.8,0.05881
3208.8,0.05886
3210.8,0.05896
3212.8,0.05905
3214.8,0.05912
3216.8,0.0592
3218.8,0.05931
3220.8,0.05943
3222.8,0.05953
3224.8,0.05958
3226.8,0.05961
3228.8,0.05967
3230.8,0.05975
3232.8,0.0599
3234.8,0.06
3236.8,0.06006
3238.9,0.06015
3240.9,0.06021
3242.9,0.06025
3244.9,0.06039
3247.0,0.06048
3249.0,0.06055
3251.1,0.06069
3253.1,0.06082
3255.1,0.06086
3257.2,0.0609
3259.2,0.06098
3261.3,0.06105
3263.3,0.06108
3265.4,0.0612
3267.4,0.06132
3269.5,0.0614
3271.6,0.06146
3273.6,0.06153
3275.7,0.0616
3277.8,0.06165
3279.8,0.06177
3281.9,0.06185
3284.0,0.06194
3286.1,0.062
3288.2,0.06207
3290.2,0.06217
3292.3,0.06224
3294.4,0.06229
3296.5,0.06235
3298.6,0.06246
3300.7,0.06256
3302.8,0.06266
3304.9,0.06269
3307.0,0.06273
3309.1,0.0628
3311.3,0.06289
3313.4,0.06294
3315.5,0.06296
3317.6,0.06301
3319.7,0.06309
3321.9,0.06316
3324.0,0.06324
3326.1,0.06336
3328.3,0.06346
3330.4,0.0635
3332.5,0.06355
3334.7,0.06359
3336.8,0.06367
3339.0,0.06376
3341.1,0.06381
3343.3,0.06387
3345.4,0.06396
3347.6,0.06404
3349.8,0.06412
3351.9,0.06415
3354.1,0.06415
3356.3,0.06422
3358.4,0.06429
3360.6,0.06435
3362.8,0.06442
3365.0,0.06447
3367.2,0.06455
3369.4,0.06458
3371.5,0.06462
3373.7,0.06468
3375.9,0.06476
3378.1,0.06485
3380.3,0.0649
3382.5,0.06493
3384.7,0.06494
3386.9,0.06502
3389.2,0.06512
3391.4,0.0652
3393.6,0.06522
3395.8,0.06524
3398.1,0.0653
3400.3,0.06535
3402.5,0.06539
3404.7,0.06543
3407.0,0.06546
3409.2,0.06547
3411.5,0.06551
3413.7,0.0656
3416.0,0.06566
3418.2,0.06574
3420.5,0.06579
3422.7,0.06588
3425.0,0.06601
3427.3,0.06608
3429.5,0.06616
3431.8,0.06621
3434.1,0.06623
3436.3,0.06631
3438.6,0.06642
3440.9,0.06648
3443.2,0.0665
3445.5,0.06658
3447.8,0.06667
3450.1,0.0667
3452.4,0.06674
3454.6,0.0668
3456.9,0.06685
3459.3,0.06692
3461.6,0.06699
3463.9,0.06702
3466.2,0.06706
3468.5,0.06709
3470.8,0.06716
3473.2,0.06721
3475.5,0.06725
3477.8,0.06727
3480.1,0.06728
3482.5,0.06731
3484.8,0.06735
3487.2,0.06741
3489.5,0.0675
3491.9,0.06753
3494.2,0.06753
3496.6,0.06754
3498.9,0.06761
3501.3,0.0677
3503.7,0.06779
3506.0,0.06785
3508.4,0.0679
3510.8,0.06796
3513.2,0.06803
3515.5,0.06812
3517.9,0.06817
3520.3,0.06819
3522.7,0.06823
3525.1,0.06831
3527.5,0.06837
3529.9,0.0684
3532.3,0.06848
3534.7,0.06855
3537.1,0.0686
3539.5,0.06865
3541.9,0.06868
3544.4,0.06872
3546.8,0.06878
3549.2,0.06882
3551.7,0.06886
3554.1,0.0689
3556.5,0.06897
3559.0,0.06901
3561.4,0.06903
3563.9,0.06905
3566.3,0.06912
3568.8,0.0692
3571.2,0.06921
3573.7,0.06921
3576.1,0.06929
3578.6,0.06937
3581.1,0.06943
3583.6,0.06947
3586.0,0.0695
3588.5,0.06956
3591.0,0.06958
3593.5,0.0696
3596.0,0.06965
3598.5,0.06971
3601.0,0.06977
3603.5,0.06978
3606.0,0.06983
3608.5,0.06987
3611.0,0.06991
3613.5,0.06993
3616.1,0.06997
3618.6,0.07006
3621.1,0.07014
3623.6,0.07017
3626.2,0.07019
3628.7,0.07018
3631.3,0.0702
3633.8,0.07024
3636.3,0.0703
3638.9,0.07036
3641.4,0.0704
3644.0,0.07043
3646.6,0.07049
3649.1,0.07055
3651.7,0.07057
3654.3,0.07058
3656.9,0.0706
3659.4,0.07064
3662.0,0.07069
3664.6,0.07074
3667.2,0.07077
3669.8,0.0708
3672.4,0.07085
3675.0,0.07089
3677.6,0.07093
3680.2,0.07101
3682.8,0.07103
3685.4,0.07104
3688.1,0.07108
3690.7,0.0711
3693.3,0.07112
3695.9,0.07116
3698.6,0.07121
3701.2,0.07127
3703.9,0.0713
3706.5,0.07131
3709.2,0.07135
3711.8,0.07138
3714.5,0.07143
3717.1,0.07149
3719.8,0.07156
3722.5,0.07156
3725.2,0.07153
3727.8,0.07156
3730.5,0.07162
3733.2,0.07163
3735.9,0.07167
3738.6,0.0717
3741.3,0.07173
3744.0,0.07181
3746.7,0.07186
3749.4,0.07189
3752.1,0.0719
3754.8,0.0719
3757.6,0.07195
3760.3,0.072
3763.0,0.07199
3765.7,0.07203
3768.5,0.07212
3771.2,0.07212
3774.0,0.07211
3776.7,0.07216
3779.5,0.07222
3782.2,0.07223
3785.0,0.07224
3787.7,0.07226
3790.5,0.07231
3793.3,0.07232
3796.1,0.07232
3798.8,0.07235
3801.6,0.07239
3804.4,0.07243
3807.2,0.07244
3810.0,0.0725
3812.8,0.07254
