Database of Origin,University of Winnipeg Spectrophotometer Facility
Sample Description,Carbonaceous chondrites - RELAB archive 8. Lab-heated carbonaceous chondrites
Other Information,ncmb64B Heated Murchison 500C
Date Added,2018-07-23 23:45:15.739044

Data ID,RLA_MET_41_2        
Sample ID,Murchison
Mineral Name,Murchison
Grain Size,<63 um
Viewing Geometry,30/0/30
Resolution,5/ 0.6-129 nm
Material Class,CM2.5/2.7

Wavelength
305.0,0.018649
310.0,0.018097
315.0,0.019516
320.0,0.019315
325.0,0.01958
330.0,0.019633
335.0,0.019984
340.0,0.020087
345.0,0.020185
350.0,0.02069
355.0,0.020773
360.0,0.021047
365.0,0.021412
370.0,0.021411
375.0,0.021469
380.0,0.021808
385.0,0.022042
390.0,0.022382
395.0,0.02279
400.0,0.02354
405.0,0.02397
410.0,0.023887
415.0,0.024197
420.0,0.024418
425.0,0.024869
430.0,0.024916
435.0,0.025326
440.0,0.025566
445.0,0.025675
450.0,0.025895
455.0,0.026274
460.0,0.026452
465.0,0.026567
470.0,0.026709
475.0,0.026838
480.0,0.026928
485.0,0.027314
490.0,0.027553
495.0,0.027702
500.0,0.027817
505.0,0.028077
510.0,0.028251
515.0,0.028501
520.0,0.028666
525.0,0.029037
530.0,0.029193
535.0,0.029429
540.0,0.029613
545.0,0.029805
550.0,0.029945
555.0,0.030086
560.0,0.030315
565.0,0.030395
570.0,0.030491
575.0,0.030571
580.0,0.03074
585.0,0.030807
590.0,0.030999
595.0,0.031054
600.0,0.031195
605.0,0.031431
610.0,0.031663
615.0,0.031798
620.0,0.032012
625.0,0.032117
630.0,0.03223
635.0,0.032292
640.0,0.032395
645.0,0.032505
650.0,0.032508
655.0,0.03257
660.0,0.032544
665.0,0.032544
670.0,0.032535
675.0,0.032548
680.0,0.032656
685.0,0.032579
690.0,0.032538
695.0,0.032424
700.0,0.032415
705.0,0.032321
710.0,0.032393
715.0,0.032445
720.0,0.032303
725.0,0.032295
730.0,0.032391
735.0,0.032397
740.0,0.032391
745.0,0.032385
750.0,0.032232
755.0,0.032266
760.0,0.032552
765.0,0.032608
770.0,0.032463
775.0,0.03247
780.0,0.032407
785.0,0.032384
790.0,0.032504
795.0,0.032399
800.0,0.032429
805.0,0.032486
810.0,0.032542
815.0,0.032461
820.0,0.032529
825.0,0.032431
830.0,0.03246
835.0,0.032623
840.0,0.03256
845.0,0.032502
850.0,0.032322
855.0,0.032458
860.0,0.032357
865.0,0.031847
870.0,0.031726
875.0,0.031729
880.0,0.031809
885.0,0.031631
890.0,0.031612
895.0,0.031638
900.0,0.031721
905.0,0.031558
910.0,0.031694
915.0,0.031591
920.0,0.031449
925.0,0.031408
930.0,0.031475
935.0,0.03151
940.0,0.031396
945.0,0.031681
950.0,0.031502
955.0,0.031526
960.0,0.031565
965.0,0.031425
970.0,0.031359
975.0,0.031587
980.0,0.031479
985.0,0.031677
990.0,0.03171
995.0,0.03171
1000.0,0.031654
1005.0,0.03167
1010.0,0.031782
1015.0,0.031752
1020.0,0.031778
1025.0,0.031744
1030.0,0.031751
1035.0,0.031954
1040.0,0.032026
1045.0,0.031968
1050.0,0.032076
1055.0,0.031905
1060.0,0.031987
1065.0,0.032067
1070.0,0.03217
1075.0,0.032149
1080.0,0.032278
1085.0,0.032228
1090.0,0.032258
1095.0,0.032353
1100.0,0.03233
1105.0,0.032301
1110.0,0.032351
1115.0,0.032247
1120.0,0.032577
1125.0,0.032461
1130.0,0.032583
1135.0,0.032624
1140.0,0.032715
1145.0,0.032586
1150.0,0.032641
1155.0,0.032754
1160.0,0.032876
1165.0,0.032897
1170.0,0.032921
1175.0,0.033014
1180.0,0.033107
1185.0,0.033142
1190.0,0.033247
1195.0,0.033206
1200.0,0.03317
1205.0,0.033442
1210.0,0.03342
1215.0,0.03356
1220.0,0.033539
1225.0,0.033595
1230.0,0.033751
1235.0,0.033645
1240.0,0.033649
1245.0,0.033744
1250.0,0.03371
1255.0,0.033788
1260.0,0.033851
1265.0,0.033926
1270.0,0.033995
1275.0,0.033947
1280.0,0.034061
1285.0,0.034166
1290.0,0.034168
1295.0,0.034409
1300.0,0.03433
1305.0,0.034435
1310.0,0.034537
1315.0,0.034467
1320.0,0.034594
1325.0,0.034743
1330.0,0.034856
1335.0,0.034952
1340.0,0.034955
1345.0,0.035081
1350.0,0.034991
1355.0,0.035389
1360.0,0.035259
1365.0,0.03563
1370.0,0.035719
1375.0,0.035464
1380.0,0.035411
1385.0,0.035909
1390.0,0.035636
1395.0,0.035906
1400.0,0.036137
1405.0,0.036147
1410.0,0.036363
1415.0,0.036348
1420.0,0.036498
1425.0,0.036357
1430.0,0.036473
1435.0,0.036532
1440.0,0.03667
1445.0,0.036857
1450.0,0.036842
1455.0,0.036968
1460.0,0.036935
1465.0,0.037137
1470.0,0.037289
1475.0,0.037344
1480.0,0.037449
1485.0,0.037397
1490.0,0.037516
1495.0,0.037527
1500.0,0.037768
1505.0,0.0378
1510.0,0.037982
1515.0,0.037998
1520.0,0.038213
1525.0,0.038252
1530.0,0.038418
1535.0,0.038437
1540.0,0.038512
1545.0,0.038491
1550.0,0.038652
1555.0,0.038618
1560.0,0.038793
1565.0,0.038812
1570.0,0.039137
1575.0,0.039167
1580.0,0.039173
1585.0,0.039417
1590.0,0.039522
1595.0,0.039559
1600.0,0.039519
1605.0,0.03959
1610.0,0.039691
1615.0,0.039932
1620.0,0.040078
1625.0,0.040109
1630.0,0.040118
1635.0,0.040185
1640.0,0.040372
1645.0,0.040614
1650.0,0.040651
1655.0,0.040657
1660.0,0.040871
1665.0,0.041109
1670.0,0.041036
1675.0,0.041364
1680.0,0.041325
1685.0,0.04157
1690.0,0.041558
1695.0,0.041585
1700.0,0.041981
1705.0,0.041994
1710.0,0.041987
1715.0,0.041972
1720.0,0.0421
1725.0,0.042193
1730.0,0.042259
1735.0,0.042252
1740.0,0.042389
1745.0,0.042378
1750.0,0.042647
1755.0,0.042536
1760.0,0.042473
1765.0,0.042555
1770.0,0.042696
1775.0,0.042687
1780.0,0.042812
1785.0,0.042947
1790.0,0.042943
1795.0,0.042989
1800.0,0.043081
1805.0,0.043212
1810.0,0.043189
1815.0,0.043295
1820.0,0.043598
1825.0,0.043458
1830.0,0.043643
1835.0,0.043315
1840.0,0.043916
1845.0,0.04376
1850.0,0.044142
1855.0,0.043936
1860.0,0.044247
1865.0,0.043796
1870.0,0.043905
1875.0,0.044767
1880.0,0.044348
1885.0,0.044325
1890.0,0.044453
1895.0,0.044434
1900.0,0.044544
1905.0,0.044814
1910.0,0.044819
1915.0,0.045094
1920.0,0.044903
1925.0,0.045088
1930.0,0.045137
1935.0,0.045199
1940.0,0.045284
1945.0,0.045299
1950.0,0.045296
1955.0,0.045458
1960.0,0.045416
1965.0,0.045515
1970.0,0.0457
1975.0,0.045896
1980.0,0.045927
1985.0,0.046049
1990.0,0.046045
1995.0,0.046132
2000.0,0.046189
2005.0,0.046318
2010.0,0.046351
2015.0,0.046529
2020.0,0.046567
2025.0,0.046796
2030.0,0.046739
2035.0,0.046872
2040.0,0.046881
2045.0,0.04712
2050.0,0.047137
2055.0,0.047262
2060.0,0.047271
2065.0,0.047291
2070.0,0.047297
2075.0,0.047416
2080.0,0.047455
2085.0,0.047694
2090.0,0.04786
2095.0,0.047883
2100.0,0.04796
2105.0,0.047919
2110.0,0.048092
2115.0,0.048208
2120.0,0.048268
2125.0,0.048213
2130.0,0.04831
2135.0,0.048551
2140.0,0.048489
2145.0,0.048482
2150.0,0.048628
2155.0,0.048857
2160.0,0.048961
2165.0,0.049016
2170.0,0.049117
2175.0,0.049288
2180.0,0.049296
2185.0,0.04949
2190.0,0.049563
2195.0,0.049644
2200.0,0.04979
2205.0,0.049828
2210.0,0.05012
2215.0,0.050202
2220.0,0.050258
2225.0,0.050483
2230.0,0.050554
2235.0,0.050645
2240.0,0.050818
2245.0,0.05091
2250.0,0.050895
2255.0,0.05096
2260.0,0.051234
2265.0,0.051208
2270.0,0.05124
2275.0,0.051264
2280.0,0.05128
2285.0,0.051517
2290.0,0.051598
2295.0,0.051615
2300.0,0.051717
2305.0,0.051783
2310.0,0.05181
2315.0,0.051871
2320.0,0.052033
2325.0,0.052007
2330.0,0.052004
2335.0,0.052236
2340.0,0.052211
2345.0,0.05232
2350.0,0.052319
2355.0,0.0523
2360.0,0.052501
2365.0,0.052328
2370.0,0.052628
2375.0,0.052573
2380.0,0.052604
2385.0,0.052824
2390.0,0.052853
2395.0,0.053075
2400.0,0.053011
2405.0,0.053124
2410.0,0.053191
2415.0,0.053345
2420.0,0.053487
2425.0,0.053654
2430.0,0.053737
2435.0,0.053821
2440.0,0.053815
2445.0,0.053851
2450.0,0.053859
2455.0,0.054008
2460.0,0.054189
2465.0,0.054136
2470.0,0.05422
2475.0,0.054442
2480.0,0.054341
2485.0,0.054332
2490.0,0.054399
2495.0,0.054395
2500.0,0.054502
2502.0,0.05433
2503.2,0.054333
2504.41,0.054527
2505.62,0.054465
2506.83,0.054663
2508.05,0.054986
2509.26,0.054823
2510.48,0.054482
2511.69,0.054355
2512.91,0.05438
2514.13,0.054447
2515.35,0.054399
2516.57,0.054448
2517.79,0.054584
2519.02,0.05455
2520.24,0.0545
2521.47,0.054474
2522.69,0.054559
2523.92,0.05472
2525.15,0.054699
2526.38,0.054811
2527.61,0.054719
2528.85,0.054586
2530.08,0.054943
2531.32,0.055017
2532.55,0.054912
2533.79,0.055065
2535.03,0.05495
2536.27,0.054767
2537.51,0.055091
2538.75,0.055184
2540.0,0.05491
2541.24,0.054784
2542.49,0.054958
2543.74,0.054911
2544.99,0.054837
2546.24,0.054906
2547.49,0.054971
2548.74,0.054904
2549.99,0.054932
2551.25,0.055117
2552.5,0.055394
2553.76,0.055276
2555.02,0.055298
2556.28,0.055249
2557.54,0.054954
2558.8,0.055264
2560.07,0.055423
2561.33,0.055361
2562.6,0.055314
2563.86,0.055333
2565.13,0.055156
2566.4,0.055275
2567.67,0.05552
2568.95,0.055583
2570.22,0.055743
2571.5,0.056074
2572.77,0.055979
2574.05,0.055402
2575.33,0.05543
2576.61,0.055738
2577.89,0.055562
2579.17,0.055412
2580.46,0.055664
2581.74,0.055921
2583.03,0.05598
2584.31,0.055781
2585.6,0.05566
2586.89,0.055952
2588.19,0.0561
2589.48,0.055829
2590.77,0.055912
2592.07,0.056175
2593.36,0.055985
2594.66,0.055768
2595.96,0.055616
2597.26,0.056071
2598.56,0.056124
2599.87,0.055768
2601.17,0.055804
2602.48,0.055993
2603.78,0.055907
2605.09,0.055826
2606.4,0.055833
2607.71,0.056025
2609.03,0.055997
2610.34,0.055967
2611.66,0.056009
2612.97,0.056231
2614.29,0.056461
2615.61,0.056308
2616.93,0.056076
2618.25,0.055861
2619.57,0.056138
2620.9,0.056249
2622.22,0.056133
2623.55,0.056216
2624.88,0.056432
2626.21,0.056308
2627.54,0.056102
2628.87,0.056209
2630.21,0.056299
2631.54,0.05632
2632.88,0.056375
2634.21,0.056349
2635.55,0.05618
2636.89,0.056256
2638.24,0.056037
2639.58,0.056128
2640.92,0.05648
2642.27,0.056629
2643.62,0.056349
2644.97,0.056265
2646.32,0.056239
2647.67,0.056182
2649.02,0.056385
2650.38,0.056129
2651.73,0.056159
2653.09,0.056264
2654.45,0.056095
2655.81,0.056291
2657.17,0.05645
2658.53,0.05627
2659.89,0.056208
2661.26,0.056475
2662.63,0.056781
2664.0,0.056782
2665.36,0.056597
2666.74,0.056258
2668.11,0.056284
2669.48,0.056759
2670.86,0.056722
2672.23,0.056426
2673.61,0.056646
2674.99,0.056465
2676.37,0.056266
2677.76,0.056575
2679.14,0.056662
2680.52,0.056236
2681.91,0.056287
2683.3,0.056329
2684.69,0.056069
2686.08,0.055786
2687.47,0.055949
2688.87,0.056077
2690.26,0.055594
2691.66,0.055472
2693.06,0.055922
2694.46,0.055981
2695.86,0.055721
2697.26,0.055624
2698.66,0.055595
2700.07,0.055489
2701.48,0.05514
2702.89,0.05499
2704.3,0.055058
2705.71,0.054996
2707.12,0.054882
2708.53,0.054559
2709.95,0.053926
2711.37,0.053662
2712.79,0.05342
2714.21,0.053552
2715.63,0.053488
2717.05,0.05322
2718.48,0.053016
2719.9,0.052914
2721.33,0.05275
2722.76,0.052313
2724.19,0.052457
2725.62,0.052506
2727.06,0.052205
2728.49,0.051941
2729.93,0.051933
2731.37,0.051773
2732.81,0.051271
2734.25,0.050819
2735.69,0.050724
2737.14,0.050819
2738.58,0.050674
2740.03,0.050376
2741.48,0.049873
2742.93,0.049495
2744.38,0.049525
2745.83,0.04944
2747.29,0.049195
2748.75,0.049012
2750.2,0.048958
2751.66,0.04887
2753.13,0.048588
2754.59,0.048227
2756.05,0.047833
2757.52,0.047536
2758.99,0.047517
2760.46,0.047428
2761.93,0.047126
2763.4,0.046923
2764.87,0.046609
2766.35,0.046478
2767.82,0.046619
2769.3,0.046724
2770.78,0.04636
2772.26,0.046017
2773.75,0.04616
2775.23,0.04611
2776.72,0.045783
2778.21,0.045529
2779.7,0.045252
2781.19,0.045135
2782.68,0.045075
2784.18,0.045017
2785.67,0.044831
2787.17,0.045013
2788.67,0.045035
2790.17,0.04487
2791.67,0.04473
2793.18,0.044386
2794.68,0.044285
2796.19,0.044476
2797.7,0.044393
2799.21,0.044157
2800.72,0.044021
2802.24,0.044043
2803.75,0.044145
2805.27,0.043944
2806.79,0.043703
2808.31,0.043595
2809.83,0.043486
2811.35,0.04355
2812.88,0.043532
2814.41,0.043351
2815.93,0.043117
2817.46,0.043034
2819.0,0.043024
2820.53,0.043123
2822.07,0.043255
2823.6,0.043316
2825.14,0.043135
2826.68,0.043034
2828.22,0.042977
2829.77,0.042774
2831.31,0.042826
2832.86,0.042842
2834.41,0.042831
2835.96,0.042829
2837.51,0.04272
2839.07,0.042617
2840.62,0.042691
2842.18,0.042711
2843.74,0.04279
2845.3,0.042858
2846.86,0.042864
2848.43,0.042635
2849.99,0.042439
2851.56,0.042382
2853.13,0.042523
2854.7,0.042599
2856.27,0.042582
2857.85,0.042571
2859.42,0.04259
2861.0,0.042586
2862.58,0.042683
2864.16,0.042491
2865.75,0.042034
2867.33,0.041898
2868.92,0.042175
2870.51,0.042324
2872.1,0.042438
2873.69,0.04232
2875.28,0.042265
2876.88,0.042352
2878.48,0.042439
2880.07,0.042464
2881.68,0.042441
2883.28,0.042297
2884.88,0.042209
2886.49,0.042335
2888.1,0.042376
2889.71,0.042309
2891.32,0.042311
2892.93,0.042374
2894.55,0.042239
2896.16,0.042146
2897.78,0.042264
2899.4,0.042377
2901.03,0.042227
2902.65,0.042221
2904.28,0.042291
2905.91,0.042151
2907.54,0.042249
2909.17,0.042457
2910.8,0.042269
2912.44,0.042169
2914.07,0.042382
2915.71,0.0423
2917.35,0.042163
2918.99,0.042258
2920.64,0.042502
2922.29,0.042321
2923.93,0.042043
2925.58,0.042136
2927.24,0.04237
2928.89,0.042269
2930.55,0.042091
2932.2,0.042172
2933.86,0.042324
2935.52,0.042389
2937.19,0.042335
2938.85,0.042539
2940.52,0.042725
2942.19,0.042636
2943.86,0.042397
2945.53,0.042264
2947.21,0.04221
2948.88,0.042471
2950.56,0.042582
2952.24,0.042571
2953.92,0.042592
2955.61,0.042632
2957.29,0.042551
2958.98,0.042569
2960.67,0.042638
2962.36,0.042771
2964.06,0.042687
2965.75,0.042665
2967.45,0.042688
2969.15,0.042751
2970.85,0.042688
2972.55,0.042788
2974.26,0.042905
2975.97,0.042991
2977.68,0.042884
2979.39,0.042895
2981.1,0.042952
2982.82,0.042877
2984.53,0.042895
2986.25,0.04301
2987.97,0.043016
2989.7,0.043201
2991.42,0.043388
2993.15,0.043384
2994.88,0.043357
2996.61,0.043406
2998.34,0.043405
3000.08,0.043304
3001.82,0.043524
3003.55,0.043682
3005.3,0.043458
3007.04,0.043493
3008.78,0.043689
3010.53,0.043858
3012.28,0.043959
3014.03,0.04373
3015.79,0.04379
3017.54,0.044007
3019.3,0.04389
3021.06,0.043797
3022.82,0.043951
3024.58,0.044034
3026.35,0.04392
3028.12,0.044046
3029.89,0.044138
3031.66,0.044055
3033.43,0.04411
3035.21,0.044333
3036.99,0.044546
3038.77,0.04465
3040.55,0.044628
3042.33,0.044629
3044.12,0.044603
3045.91,0.044566
3047.7,0.044608
3049.49,0.044708
3051.29,0.044733
3053.08,0.044594
3054.88,0.044561
3056.68,0.044669
3058.49,0.044742
3060.29,0.044646
3062.1,0.044634
3063.91,0.044747
3065.72,0.044906
3067.54,0.045027
3069.35,0.044942
3071.17,0.044835
3072.99,0.044999
3074.81,0.045183
3076.64,0.045146
3078.47,0.045077
3080.29,0.045029
3082.13,0.045125
3083.96,0.045373
3085.79,0.045409
3087.63,0.045285
3089.47,0.045338
3091.31,0.045469
3093.16,0.045434
3095.01,0.045492
3096.85,0.045626
3098.71,0.045752
3100.56,0.04573
3102.41,0.045717
3104.27,0.045917
3106.13,0.046001
3107.99,0.04587
3109.86,0.045965
3111.73,0.046063
3113.59,0.046298
3115.47,0.0465
3117.34,0.046424
3119.21,0.046412
3121.09,0.046496
3122.97,0.046445
3124.86,0.04638
3126.74,0.046365
3128.63,0.046376
3130.52,0.046391
3132.41,0.046486
3134.3,0.046631
3136.2,0.046768
3138.1,0.046797
3140.0,0.046858
3141.9,0.046961
3143.81,0.046995
3145.71,0.047055
3147.62,0.047105
3149.54,0.047179
3151.45,0.047213
3153.37,0.047256
3155.29,0.047417
3157.21,0.047538
3159.13,0.047533
3161.06,0.047654
3162.99,0.047781
3164.92,0.04778
3166.85,0.047829
3168.79,0.047897
3170.72,0.047967
3172.67,0.048
3174.61,0.047973
3176.55,0.047937
3178.5,0.048187
3180.45,0.048337
3182.4,0.048247
3184.36,0.048385
3186.32,0.048551
3188.27,0.048619
3190.24,0.048616
3192.2,0.048715
3194.17,0.048807
3196.14,0.048804
3198.11,0.048771
3200.08,0.048861
3202.06,0.049107
3204.04,0.049254
3206.02,0.049041
3208.0,0.048959
3209.99,0.049012
3211.98,0.049164
3213.97,0.049335
3215.96,0.049322
3217.96,0.049388
3219.96,0.04948
3221.96,0.04965
3223.96,0.049741
3225.97,0.049768
3227.98,0.049839
3229.99,0.049742
3232.0,0.049836
3234.02,0.05008
3236.04,0.050113
3238.06,0.050264
3240.08,0.05041
3242.11,0.050416
3244.14,0.050343
3246.17,0.050486
3248.2,0.050621
3250.24,0.050558
3252.28,0.050613
3254.32,0.050632
3256.37,0.050758
3258.41,0.050824
3260.46,0.050841
3262.51,0.050968
3264.57,0.051209
3266.63,0.051305
3268.69,0.051151
3270.75,0.051258
3272.81,0.05139
3274.88,0.051363
3276.95,0.0515
3279.02,0.051599
3281.1,0.051438
3283.18,0.051488
3285.26,0.051838
3287.34,0.051944
3289.43,0.051934
3291.51,0.051966
3293.61,0.052034
3295.7,0.052122
3297.8,0.052261
3299.9,0.052262
3302.0,0.052249
3304.1,0.052393
3306.21,0.052404
3308.32,0.052553
3310.43,0.052709
3312.55,0.052702
3314.66,0.052674
3316.79,0.052669
3318.91,0.052657
3321.03,0.052652
3323.16,0.052723
3325.29,0.053062
3327.43,0.053255
3329.57,0.053115
3331.71,0.053194
3333.85,0.053293
3335.99,0.053368
3338.14,0.053352
3340.29,0.053377
3342.45,0.053366
3344.6,0.053532
3346.76,0.053588
3348.92,0.05365
3351.09,0.053773
3353.26,0.053765
3355.43,0.053781
3357.6,0.053846
3359.78,0.053983
3361.96,0.05399
3364.14,0.054042
3366.32,0.054206
3368.51,0.054205
3370.7,0.054123
3372.89,0.054249
3375.09,0.054358
3377.29,0.054364
3379.49,0.05442
3381.69,0.054257
3383.9,0.054385
3386.11,0.054561
3388.32,0.054469
3390.54,0.054599
3392.76,0.054704
3394.98,0.054648
3397.21,0.054778
3399.43,0.054799
3401.66,0.054806
3403.9,0.054901
3406.13,0.054937
3408.37,0.054879
3410.61,0.054955
3412.86,0.054965
3415.11,0.054857
3417.36,0.054945
3419.61,0.055152
3421.87,0.055258
3424.13,0.055304
3426.39,0.055444
3428.66,0.055651
3430.93,0.055777
3433.2,0.055691
3435.48,0.05575
3437.76,0.055968
3440.04,0.056142
3442.32,0.056194
3444.61,0.056065
3446.9,0.056195
3449.19,0.056359
3451.49,0.056505
3453.79,0.05651
3456.09,0.056429
3458.4,0.056439
3460.7,0.05653
3463.02,0.056708
3465.33,0.05689
3467.65,0.056904
3469.97,0.056845
3472.29,0.056878
3474.62,0.057029
3476.95,0.057217
3479.29,0.057117
3481.62,0.057083
3483.96,0.057289
3486.3,0.057374
3488.65,0.057382
3491.0,0.057474
3493.35,0.057515
3495.71,0.057345
3498.07,0.057241
3500.43,0.0573
3502.79,0.057477
3505.16,0.057693
3507.53,0.057804
3509.91,0.057779
3512.29,0.057875
3514.67,0.058002
3517.05,0.058154
3519.44,0.058185
3521.83,0.058148
3524.23,0.058361
3526.62,0.058569
3529.02,0.058587
3531.43,0.058633
3533.83,0.058581
3536.24,0.058536
3538.66,0.058668
3541.08,0.058819
3543.5,0.058829
3545.92,0.058839
3548.35,0.058893
3550.78,0.058984
3553.21,0.058999
3555.65,0.059017
3558.09,0.059056
3560.53,0.059149
3562.98,0.059363
3565.43,0.05951
3567.88,0.059445
3570.34,0.059425
3572.8,0.059528
3575.27,0.059503
3577.73,0.059381
3580.2,0.059492
3582.68,0.059805
3585.16,0.059825
3587.64,0.059758
3590.12,0.059753
3592.61,0.059845
3595.1,0.059958
3597.6,0.060024
3600.09,0.060063
3602.6,0.060119
3605.1,0.060204
3607.61,0.060168
3610.12,0.060123
3612.64,0.060241
3615.16,0.060392
3617.68,0.060483
3620.21,0.060603
3622.74,0.06063
3625.27,0.060748
3627.81,0.060745
3630.35,0.06076
3632.89,0.06076
3635.44,0.060774
3637.99,0.060987
3640.54,0.06104
3643.1,0.060968
3645.66,0.060983
3648.23,0.060973
3650.8,0.060978
3653.37,0.061014
3655.95,0.06109
3658.53,0.061162
3661.11,0.061226
3663.7,0.061308
3666.29,0.061456
3668.89,0.061438
3671.48,0.061423
3674.09,0.061605
3676.69,0.061602
3679.3,0.06156
3681.91,0.061641
3684.53,0.061673
3687.15,0.061827
3689.78,0.06198
3692.4,0.062016
3695.04,0.061828
3697.67,0.061767
3700.31,0.061772
3702.95,0.06181
3705.6,0.062021
3708.25,0.062123
3710.91,0.062114
3713.56,0.062115
3716.23,0.062171
3718.89,0.062261
3721.56,0.062307
3724.23,0.062302
3726.91,0.062317
3729.59,0.062371
3732.28,0.062391
3734.97,0.062456
3737.66,0.062543
3740.36,0.062538
3743.06,0.0626
3745.76,0.062698
3748.47,0.062633
