Database of Origin,University of Winnipeg Spectrophotometer Facility
Sample Description,16.12. Meteorites - Ureilites 16.12.3. Pierre Hudon (JSC) samples (b) Nicolet FTIR spectra from RELAB
Other Information,bmr1ph023
Date Added,2018-07-23 23:49:07.240504

Data ID,RLA_MET2_9_4        
Sample ID,GRA95205
Mineral Name,ureilite
Grain Size,<75 um
Viewing Geometry,30/30
Resolution,0.8-121 nm

Wavelength
2000.5,0.04908
2001.3,0.04906
2002.1,0.04888
2002.8,0.04898
2003.6,0.04924
2004.4,0.04926
2005.2,0.04944
2005.9,0.04988
2006.7,0.05028
2007.5,0.04977
2008.3,0.04967
2009.0,0.05012
2009.8,0.05014
2010.6,0.04979
2011.4,0.05007
2012.2,0.05004
2012.9,0.04989
2013.7,0.05006
2014.5,0.04945
2015.3,0.0496
2016.1,0.05056
2016.8,0.05061
2017.6,0.05017
2018.4,0.05071
2019.2,0.05087
2020.0,0.05045
2020.8,0.05013
2021.6,0.0499
2022.4,0.04995
2023.2,0.05014
2023.9,0.0507
2024.7,0.05104
2025.5,0.05113
2026.3,0.05143
2027.1,0.0513
2027.9,0.05094
2028.7,0.05101
2029.5,0.05095
2030.3,0.05097
2031.1,0.05102
2031.9,0.05114
2032.7,0.05166
2033.5,0.05184
2034.3,0.05131
2035.1,0.05102
2035.9,0.05089
2036.7,0.05102
2037.5,0.05181
2038.3,0.05219
2039.1,0.05198
2039.9,0.05179
2040.7,0.05139
2041.5,0.05179
2042.3,0.05238
2043.1,0.05218
2043.9,0.05203
2044.7,0.05218
2045.5,0.05192
2046.3,0.05171
2047.1,0.05228
2047.9,0.05295
2048.7,0.05269
2049.5,0.05215
2050.4,0.05206
2051.2,0.05217
2052.0,0.05245
2052.8,0.05295
2053.6,0.05312
2054.4,0.05294
2055.2,0.053
2056.0,0.05301
2056.9,0.05285
2057.7,0.05328
2058.5,0.05367
2059.3,0.05347
2060.1,0.05331
2060.9,0.05323
2061.8,0.05314
2062.6,0.05327
2063.4,0.05353
2064.2,0.05392
2065.1,0.05366
2065.9,0.05362
2066.7,0.05362
2067.5,0.05356
2068.3,0.05352
2069.2,0.05321
2070.0,0.05326
2070.8,0.05397
2071.6,0.05405
2072.5,0.05399
2073.3,0.05418
2074.1,0.05425
2075.0,0.05404
2075.8,0.05455
2076.6,0.0548
2077.5,0.05432
2078.3,0.05424
2079.1,0.05458
2080.0,0.05481
2080.8,0.05481
2081.6,0.05455
2082.5,0.05491
2083.3,0.05524
2084.1,0.05509
2085.0,0.05498
2085.8,0.05497
2086.7,0.05528
2087.5,0.05533
2088.3,0.0552
2089.2,0.05524
2090.0,0.05502
2090.9,0.05486
2091.7,0.05516
2092.6,0.05549
2093.4,0.05586
2094.2,0.05571
2095.1,0.05547
2095.9,0.05558
2096.8,0.05546
2097.6,0.05555
2098.5,0.05574
2099.3,0.05573
2100.2,0.05601
2101.0,0.05651
2101.9,0.05676
2102.7,0.05657
2103.6,0.05622
2104.4,0.05602
2105.3,0.05613
2106.1,0.05658
2107.0,0.05668
2107.9,0.05651
2108.7,0.05655
2109.6,0.05666
2110.4,0.05658
2111.3,0.0565
2112.2,0.05653
2113.0,0.05644
2113.9,0.05674
2114.7,0.05722
2115.6,0.05706
2116.5,0.05714
2117.3,0.05749
2118.2,0.05762
2119.1,0.05747
2119.9,0.05747
2120.8,0.05766
2121.7,0.05746
2122.5,0.05743
2123.4,0.05763
2124.3,0.05782
2125.1,0.05775
2126.0,0.05787
2126.9,0.0579
2127.8,0.05791
2128.6,0.05782
2129.5,0.05763
2130.4,0.05796
2131.3,0.05818
2132.1,0.05812
2133.0,0.05798
2133.9,0.05792
2134.8,0.05791
2135.6,0.05796
2136.5,0.05797
2137.4,0.05823
2138.3,0.05843
2139.2,0.05841
2140.1,0.05827
2140.9,0.05817
2141.8,0.05833
2142.7,0.05864
2143.6,0.05888
2144.5,0.05876
2145.4,0.05849
2146.3,0.05854
2147.1,0.05858
2148.0,0.05854
2148.9,0.0588
2149.8,0.05891
2150.7,0.05839
2151.6,0.05829
2152.5,0.05856
2153.4,0.05892
2154.3,0.05922
2155.2,0.05881
2156.1,0.05852
2157.0,0.05884
2157.9,0.05931
2158.8,0.05934
2159.7,0.05933
2160.6,0.05962
2161.5,0.05977
2162.4,0.05963
2163.3,0.0595
2164.2,0.05968
2165.1,0.05967
2166.0,0.05934
2166.9,0.05934
2167.8,0.05966
2168.7,0.05978
2169.6,0.06002
2170.5,0.06009
2171.4,0.06007
2172.3,0.06024
2173.3,0.05989
2174.2,0.05977
2175.1,0.0601
2176.0,0.06035
2176.9,0.06052
2177.8,0.06033
2178.7,0.06006
2179.6,0.05996
2180.6,0.06032
2181.5,0.0607
2182.4,0.06065
2183.3,0.06046
2184.2,0.06076
2185.1,0.06105
2186.1,0.06091
2187.0,0.06097
2187.9,0.06098
2188.8,0.06049
2189.8,0.06023
2190.7,0.06062
2191.6,0.06081
2192.6,0.06069
2193.5,0.06084
2194.4,0.06115
2195.3,0.06129
2196.3,0.06133
2197.2,0.06123
2198.1,0.06113
2199.1,0.06107
2200.0,0.06113
2200.9,0.06103
2201.9,0.06097
2202.8,0.0611
2203.7,0.06139
2204.7,0.06127
2205.6,0.06096
2206.5,0.06115
2207.5,0.06126
2208.4,0.06148
2209.4,0.06146
2210.3,0.06153
2211.3,0.0616
2212.2,0.06158
2213.1,0.0618
2214.1,0.06204
2215.0,0.06189
2216.0,0.06191
2216.9,0.06211
2217.9,0.06198
2218.8,0.06182
2219.8,0.0619
2220.7,0.06207
2221.7,0.06244
2222.6,0.06253
2223.6,0.06245
2224.5,0.06242
2225.5,0.06245
2226.4,0.0625
2227.4,0.06257
2228.4,0.06257
2229.3,0.06262
2230.3,0.0627
2231.2,0.06277
2232.2,0.06261
2233.1,0.06274
2234.1,0.06302
2235.1,0.06282
2236.0,0.06272
2237.0,0.06298
2238.0,0.06296
2238.9,0.06281
2239.9,0.06266
2240.9,0.06259
2241.8,0.06278
2242.8,0.06296
2243.8,0.06301
2244.8,0.06316
2245.7,0.06347
2246.7,0.06347
2247.7,0.06318
2248.6,0.06325
2249.6,0.06344
2250.6,0.06354
2251.6,0.06345
2252.6,0.06355
2253.5,0.06357
2254.5,0.06363
2255.5,0.06386
2256.5,0.06402
2257.5,0.06379
2258.4,0.06357
2259.4,0.06366
2260.4,0.06376
2261.4,0.06385
2262.4,0.06411
2263.4,0.06404
2264.4,0.06411
2265.4,0.06438
2266.3,0.06424
2267.3,0.06422
2268.3,0.06395
2269.3,0.06381
2270.3,0.06407
2271.3,0.06413
2272.3,0.06418
2273.3,0.06413
2274.3,0.06408
2275.3,0.06418
2276.3,0.06441
2277.3,0.06467
2278.3,0.06467
2279.3,0.06476
2280.3,0.0647
2281.3,0.0647
2282.3,0.06479
2283.3,0.06459
2284.3,0.06456
2285.3,0.06485
2286.3,0.06498
2287.3,0.06509
2288.4,0.06503
2289.4,0.06503
2290.4,0.06496
2291.4,0.065
2292.4,0.06512
2293.4,0.065
2294.4,0.06523
2295.4,0.06556
2296.5,0.06539
2297.5,0.06529
2298.5,0.06513
2299.5,0.06524
2300.5,0.06556
2301.6,0.06565
2302.6,0.06561
2303.6,0.06554
2304.6,0.06536
2305.6,0.06529
2306.7,0.06566
2307.7,0.06563
2308.7,0.06542
2309.8,0.0655
2310.8,0.06558
2311.8,0.0655
2312.9,0.06567
2313.9,0.066
2314.9,0.06611
2315.9,0.06602
2317.0,0.06606
2318.0,0.06621
2319.1,0.06621
2320.1,0.06604
2321.1,0.06607
2322.2,0.06626
2323.2,0.06626
2324.3,0.06611
2325.3,0.06608
2326.3,0.06614
2327.4,0.0662
2328.4,0.06655
2329.5,0.06664
2330.5,0.06647
2331.6,0.06655
2332.6,0.06677
2333.7,0.06674
2334.7,0.06648
2335.8,0.06638
2336.8,0.06649
2337.9,0.06669
2338.9,0.06673
2340.0,0.0668
2341.0,0.0668
2342.1,0.06663
2343.2,0.06681
2344.2,0.06686
2345.3,0.067
2346.3,0.06729
2347.4,0.0674
2348.5,0.06733
2349.5,0.06729
2350.6,0.06744
2351.7,0.06739
2352.7,0.0673
2353.8,0.06727
2354.9,0.06743
2355.9,0.06767
2357.0,0.06758
2358.1,0.06738
2359.1,0.0673
2360.2,0.06734
2361.3,0.06755
2362.4,0.0677
2363.4,0.06772
2364.5,0.0677
2365.6,0.06759
2366.7,0.06746
2367.8,0.06737
2368.9,0.06748
2369.9,0.0677
2371.0,0.06792
2372.1,0.0681
2373.2,0.0682
2374.3,0.06806
2375.4,0.06784
2376.4,0.06792
2377.5,0.06793
2378.6,0.06781
2379.7,0.06795
2380.8,0.06795
2381.9,0.06793
2383.0,0.06793
2384.1,0.06806
2385.2,0.06813
2386.3,0.06818
2387.4,0.06816
2388.5,0.06828
2389.6,0.06837
2390.7,0.06832
2391.8,0.06824
2392.9,0.06836
2394.0,0.06851
2395.1,0.06831
2396.2,0.06832
2397.3,0.06854
2398.4,0.0687
2399.6,0.06864
2400.7,0.06869
2401.8,0.06875
2402.9,0.06872
2404.0,0.06875
2405.1,0.06888
2406.2,0.06892
2407.4,0.06898
2408.5,0.06912
2409.6,0.06904
2410.7,0.06894
2411.8,0.06897
2412.9,0.06895
2414.1,0.06891
2415.2,0.06889
2416.3,0.06912
2417.4,0.06936
2418.6,0.06922
2419.7,0.0692
2420.8,0.06921
2422.0,0.06912
2423.1,0.06926
2424.2,0.06932
2425.4,0.06943
2426.5,0.06937
2427.6,0.06921
2428.8,0.06941
2429.9,0.06953
2431.1,0.06954
2432.2,0.06962
2433.3,0.06952
2434.5,0.06949
2435.6,0.06959
2436.8,0.06973
2437.9,0.06976
2439.1,0.06964
2440.2,0.06963
2441.4,0.0697
2442.5,0.06981
2443.6,0.06982
2444.8,0.06994
2446.0,0.07007
2447.1,0.07003
2448.3,0.06993
2449.4,0.07006
2450.6,0.07008
2451.7,0.06994
2452.9,0.06993
2454.1,0.07002
2455.2,0.07012
2456.4,0.07015
2457.6,0.07026
2458.7,0.07036
2459.9,0.07049
2461.1,0.07048
2462.2,0.0705
2463.4,0.07053
2464.6,0.07044
2465.7,0.07039
2466.9,0.07047
2468.1,0.07059
2469.3,0.07057
2470.4,0.07059
2471.6,0.07064
2472.8,0.07081
2474.0,0.07097
2475.1,0.07094
2476.3,0.07069
2477.5,0.07055
2478.7,0.07075
2479.9,0.07087
2481.1,0.07082
2482.3,0.07083
2483.4,0.07086
2484.6,0.07085
2485.8,0.07092
2487.0,0.07108
2488.2,0.0711
2489.4,0.07122
2490.6,0.07119
2491.8,0.07099
2493.0,0.07101
2494.2,0.07097
2495.4,0.07112
2496.6,0.07133
2497.8,0.07132
2499.0,0.07133
2500.2,0.0713
2501.4,0.07135
2502.6,0.07144
2503.8,0.07154
2505.0,0.07155
2506.3,0.07127
2507.5,0.07121
2508.7,0.07147
2509.9,0.07172
2511.1,0.07175
2512.3,0.07157
2513.5,0.07142
2514.8,0.07161
2516.0,0.07174
2517.2,0.07174
2518.4,0.07174
2519.6,0.07173
2520.9,0.07191
2522.1,0.07205
2523.3,0.07192
2524.6,0.07191
2525.8,0.07202
2527.0,0.07202
2528.3,0.07196
2529.5,0.07189
2530.7,0.07193
2531.9,0.07204
2533.2,0.07199
2534.4,0.07202
2535.7,0.07206
2536.9,0.07197
2538.1,0.07206
2539.4,0.07215
2540.6,0.07223
2541.9,0.07225
2543.1,0.07225
2544.4,0.07235
2545.6,0.07249
2546.9,0.07259
2548.1,0.07255
2549.4,0.07264
2550.6,0.07258
2551.9,0.0724
2553.1,0.07246
2554.4,0.07265
2555.7,0.07265
2556.9,0.07268
2558.2,0.07264
2559.4,0.07265
2560.7,0.07276
2562.0,0.07286
2563.2,0.07296
2564.5,0.07308
2565.8,0.07309
2567.1,0.07299
2568.3,0.07298
2569.6,0.07312
2570.9,0.07321
2572.1,0.07314
2573.4,0.07299
2574.7,0.07286
2576.0,0.07288
2577.3,0.07293
2578.5,0.07302
2579.8,0.07306
2581.1,0.07315
2582.4,0.0731
2583.7,0.07309
2585.0,0.07317
2586.3,0.07326
2587.5,0.07333
2588.8,0.07342
2590.1,0.07346
2591.4,0.07346
2592.7,0.07346
2594.0,0.07346
2595.3,0.07344
2596.6,0.07339
2597.9,0.07356
2599.2,0.07361
2600.5,0.07353
2601.8,0.0736
2603.1,0.07362
2604.4,0.07361
2605.8,0.07364
2607.1,0.07368
2608.4,0.07383
2609.7,0.07385
2611.0,0.07379
2612.3,0.07379
2613.6,0.07375
2614.9,0.07378
2616.3,0.07387
2617.6,0.07395
2618.9,0.07405
2620.2,0.07404
2621.6,0.07404
2622.9,0.07396
2624.2,0.07401
2625.5,0.07414
2626.9,0.07414
2628.2,0.07419
2629.5,0.07423
2630.9,0.07427
2632.2,0.0743
2633.5,0.07421
2634.9,0.07419
2636.2,0.07432
2637.6,0.07454
2638.9,0.07452
2640.2,0.07437
2641.6,0.0743
2642.9,0.07435
2644.3,0.07438
2645.6,0.07443
2647.0,0.07452
2648.3,0.07462
2649.7,0.07458
2651.0,0.07447
2652.4,0.07438
2653.8,0.07431
2655.1,0.07449
2656.5,0.07461
2657.8,0.07472
2659.2,0.07469
2660.6,0.07458
2661.9,0.07455
2663.3,0.07457
2664.7,0.07475
2666.0,0.07482
2667.4,0.07477
2668.8,0.07475
2670.1,0.07474
2671.5,0.07484
2672.9,0.07475
2674.3,0.07463
2675.7,0.07465
2677.0,0.07462
2678.4,0.07463
2679.8,0.07474
2681.2,0.07482
2682.6,0.07484
2684.0,0.07474
2685.4,0.07477
2686.8,0.07487
2688.1,0.07493
2689.5,0.07493
2690.9,0.07476
2692.3,0.07471
2693.7,0.07481
2695.1,0.07487
2696.5,0.07489
2697.9,0.07485
2699.3,0.07471
2700.8,0.07478
2702.1,0.07491
2703.6,0.07481
2705.0,0.07474
2706.4,0.07476
2707.8,0.07474
2709.2,0.07468
2710.6,0.07468
2712.1,0.07463
2713.5,0.07463
2714.9,0.07457
2716.3,0.07452
2717.7,0.07457
2719.2,0.07461
2720.6,0.07452
2722.0,0.07441
2723.4,0.07443
2724.9,0.0743
2726.3,0.07419
2727.7,0.07428
2729.2,0.07433
2730.6,0.07416
2732.1,0.07405
2733.5,0.07403
2734.9,0.07401
2736.4,0.07392
2737.8,0.07379
2739.3,0.07367
2740.7,0.0737
2742.2,0.07374
2743.6,0.07365
2745.1,0.07353
2746.5,0.07336
2748.0,0.07324
2749.4,0.07321
2750.9,0.07322
2752.4,0.07312
2753.8,0.07293
2755.3,0.07283
2756.7,0.07267
2758.2,0.07257
2759.7,0.07254
2761.1,0.07245
2762.6,0.07244
2764.1,0.07234
2765.6,0.07215
2767.0,0.07199
2768.5,0.07191
2770.0,0.07171
2771.5,0.07161
2773.0,0.07157
2774.4,0.07145
2775.9,0.07141
2777.4,0.07134
2778.9,0.07113
2780.4,0.07096
2781.9,0.07097
2783.4,0.07088
2784.9,0.07078
2786.4,0.0707
2787.9,0.0706
2789.4,0.07051
2790.9,0.07041
2792.4,0.07031
2793.9,0.07019
2795.4,0.0701
2796.9,0.07003
2798.4,0.06996
2799.9,0.06979
2801.4,0.06971
2802.9,0.06968
2804.4,0.06961
2806.0,0.06949
2807.5,0.06941
2809.0,0.06933
2810.5,0.06923
2812.1,0.06916
2813.6,0.06911
2815.1,0.06901
2816.6,0.06902
2818.2,0.0689
2819.7,0.06867
2821.2,0.06859
2822.8,0.06853
2824.3,0.06851
2825.9,0.06846
2827.4,0.06837
2828.9,0.06826
2830.5,0.06814
2832.0,0.06817
2833.6,0.06808
2835.1,0.0679
2836.7,0.06777
2838.2,0.06767
2839.8,0.06761
2841.3,0.06762
2842.9,0.06754
2844.4,0.06738
2846.0,0.06741
2847.6,0.06742
2849.1,0.06739
2850.7,0.06735
2852.3,0.06717
2853.8,0.06715
2855.4,0.06714
2857.0,0.06702
2858.6,0.06683
2860.1,0.06683
2861.7,0.06687
2863.3,0.06681
2864.9,0.06675
2866.5,0.06677
2868.1,0.06679
2869.6,0.06677
2871.2,0.06672
2872.8,0.06661
2874.4,0.06657
2876.0,0.06662
2877.6,0.06661
2879.2,0.06648
2880.8,0.06639
2882.4,0.06638
2884.0,0.06641
2885.6,0.06636
2887.2,0.06633
2888.8,0.06634
2890.4,0.0663
2892.0,0.06634
2893.6,0.06638
2895.3,0.06628
2896.9,0.06618
2898.5,0.06616
2900.1,0.06622
2901.8,0.06619
2903.4,0.06611
2905.0,0.06614
2906.6,0.06623
2908.3,0.06628
2909.9,0.06617
2911.5,0.06601
2913.2,0.06597
2914.8,0.06602
2916.4,0.06608
2918.1,0.06614
2919.7,0.0661
2921.4,0.0661
2923.0,0.06603
2924.7,0.06593
2926.3,0.06591
2928.0,0.06583
2929.6,0.06578
2931.3,0.06585
2932.9,0.06589
2934.6,0.06591
2936.3,0.06593
2937.9,0.06586
2939.6,0.06574
2941.3,0.06571
2942.9,0.06583
2944.6,0.06586
2946.3,0.06584
2947.9,0.06582
2949.6,0.06583
2951.3,0.06582
2953.0,0.06585
2954.7,0.06585
2956.3,0.0658
2958.0,0.06578
2959.7,0.0658
2961.4,0.06575
2963.1,0.06573
2964.8,0.06577
2966.5,0.06567
2968.2,0.06561
2969.9,0.06569
2971.6,0.06576
2973.3,0.06569
2975.0,0.06562
2976.7,0.06562
2978.4,0.06557
2980.1,0.06549
2981.9,0.06551
2983.6,0.06563
2985.3,0.06563
2987.0,0.06559
2988.7,0.06561
2990.4,0.06564
2992.2,0.0656
2993.9,0.06554
2995.6,0.06556
2997.4,0.06564
2999.1,0.06565
3000.8,0.06567
3002.6,0.0657
3004.3,0.06568
3006.1,0.06562
3007.8,0.06556
3009.5,0.06554
3011.3,0.06555
3013.0,0.06559
3014.8,0.06559
3016.5,0.06558
3018.3,0.06562
3020.1,0.06563
3021.8,0.06557
3023.6,0.06558
3025.3,0.06562
3027.1,0.06561
3028.9,0.0656
3030.6,0.06559
3032.4,0.06557
3034.2,0.06561
3036.0,0.06555
3037.7,0.06554
3039.5,0.06563
3041.3,0.06564
3043.1,0.06556
3044.9,0.06554
3046.7,0.06551
3048.5,0.06552
3050.3,0.06553
3052.1,0.06549
3053.8,0.0654
3055.6,0.06538
3057.4,0.06545
3059.3,0.06542
3061.1,0.06538
3062.9,0.06543
3064.7,0.06543
3066.5,0.06541
3068.3,0.06538
3070.1,0.06534
3071.9,0.06527
3073.8,0.06526
3075.6,0.06526
3077.4,0.06528
3079.2,0.06527
3081.1,0.06519
3082.9,0.06508
3084.7,0.06515
3086.6,0.06522
3088.4,0.06521
3090.2,0.06522
3092.1,0.06516
3093.9,0.06514
3095.8,0.06523
3097.6,0.06523
3099.5,0.06518
3101.3,0.06523
3103.2,0.06523
3105.1,0.06515
3106.9,0.06519
3108.8,0.06524
3110.6,0.06521
3112.5,0.06523
3114.4,0.06534
3116.2,0.06533
3118.1,0.06523
3120.0,0.06521
3121.9,0.06525
3123.8,0.0653
3125.6,0.06528
3127.5,0.06532
3129.4,0.06545
3131.3,0.06548
3133.2,0.06548
3135.1,0.06548
3137.0,0.06552
3138.9,0.06558
3140.8,0.06564
3142.7,0.06569
3144.6,0.06572
3146.5,0.06577
3148.4,0.0658
3150.3,0.06582
3152.2,0.06586
3154.1,0.06597
3156.1,0.06605
3158.0,0.06604
3159.9,0.06599
3161.8,0.06612
3163.8,0.06626
3165.7,0.0663
3167.6,0.06635
3169.6,0.06638
3171.5,0.06638
3173.5,0.06639
3175.4,0.06645
3177.3,0.06656
3179.3,0.0667
3181.2,0.06678
3183.2,0.06681
3185.1,0.0669
3187.1,0.06701
3189.1,0.06709
3191.0,0.06716
3193.0,0.0672
3195.0,0.06722
3196.9,0.06734
3198.9,0.06747
3200.9,0.06756
3202.9,0.06765
3204.8,0.06772
3206.8,0.06778
3208.8,0.06788
3210.8,0.06799
3212.8,0.06806
3214.8,0.06816
3216.8,0.06831
3218.8,0.06838
3220.8,0.0684
3222.8,0.0685
3224.8,0.0686
3226.8,0.06866
3228.8,0.06873
3230.8,0.06885
3232.8,0.06897
3234.8,0.06911
3236.8,0.06922
3238.9,0.06933
3240.9,0.06941
3242.9,0.06943
3244.9,0.06952
3247.0,0.06964
3249.0,0.06973
3251.1,0.06976
3253.1,0.06987
3255.1,0.06998
3257.2,0.07001
3259.2,0.0701
3261.3,0.07023
3263.3,0.07032
3265.4,0.07039
3267.4,0.07045
3269.5,0.07054
3271.6,0.07062
3273.6,0.07073
3275.7,0.07079
3277.8,0.07083
3279.8,0.07091
3281.9,0.07103
3284.0,0.0711
3286.1,0.07113
3288.2,0.07126
3290.2,0.07143
3292.3,0.07146
3294.4,0.07144
3296.5,0.07149
3298.6,0.07164
3300.7,0.07177
3302.8,0.0718
3304.9,0.07184
3307.0,0.07189
3309.1,0.07201
3311.3,0.07212
3313.4,0.07215
3315.5,0.07218
3317.6,0.0722
3319.7,0.07224
3321.9,0.07233
3324.0,0.07239
3326.1,0.07248
3328.3,0.07261
3330.4,0.07271
3332.5,0.07281
3334.7,0.07284
3336.8,0.0729
3339.0,0.07299
3341.1,0.07297
3343.3,0.07301
3345.4,0.07314
3347.6,0.07329
3349.8,0.07335
3351.9,0.07336
3354.1,0.0734
3356.3,0.07349
3358.4,0.07357
3360.6,0.07365
3362.8,0.07369
3365.0,0.07371
3367.2,0.07375
3369.4,0.07376
3371.5,0.07379
3373.7,0.07381
3375.9,0.07383
3378.1,0.07385
3380.3,0.07396
3382.5,0.07411
3384.7,0.07415
3386.9,0.07416
3389.2,0.07425
3391.4,0.07437
3393.6,0.07441
3395.8,0.07446
3398.1,0.07445
3400.3,0.07444
3402.5,0.07452
3404.7,0.07447
3407.0,0.0744
3409.2,0.07439
3411.5,0.07439
3413.7,0.07447
3416.0,0.07453
3418.2,0.07455
3420.5,0.07456
3422.7,0.0746
3425.0,0.07469
3427.3,0.07482
3429.5,0.07492
3431.8,0.07509
3434.1,0.07521
3436.3,0.07529
3438.6,0.07534
3440.9,0.07537
3443.2,0.07547
3445.5,0.07551
3447.8,0.07561
3450.1,0.07572
3452.4,0.07575
3454.6,0.07583
3456.9,0.07591
3459.3,0.07598
3461.6,0.076
3463.9,0.07606
3466.2,0.0761
3468.5,0.07615
3470.8,0.07621
3473.2,0.0763
3475.5,0.07641
3477.8,0.07641
3480.1,0.07643
3482.5,0.0765
3484.8,0.07651
3487.2,0.07649
3489.5,0.0765
3491.9,0.07656
3494.2,0.0766
3496.6,0.07654
3498.9,0.07656
3501.3,0.07661
3503.7,0.07663
3506.0,0.0767
3508.4,0.07677
3510.8,0.07689
3513.2,0.077
3515.5,0.07703
3517.9,0.07706
3520.3,0.0771
3522.7,0.07718
3525.1,0.07726
3527.5,0.07727
3529.9,0.07735
3532.3,0.0775
3534.7,0.07759
3537.1,0.07765
3539.5,0.07766
3541.9,0.07767
3544.4,0.07773
3546.8,0.07777
3549.2,0.07784
3551.7,0.07786
3554.1,0.07792
3556.5,0.07802
3559.0,0.07806
3561.4,0.07806
3563.9,0.07809
3566.3,0.07811
3568.8,0.07817
3571.2,0.07825
3573.7,0.07826
3576.1,0.07833
3578.6,0.07842
3581.1,0.07845
3583.6,0.07848
3586.0,0.07854
3588.5,0.07861
3591.0,0.07865
3593.5,0.07866
3596.0,0.07871
3598.5,0.07884
3601.0,0.0789
3603.5,0.07891
3606.0,0.07891
3608.5,0.0789
3611.0,0.0789
3613.5,0.07898
3616.1,0.07905
3618.6,0.07906
3621.1,0.0791
3623.6,0.07916
3626.2,0.0792
3628.7,0.0792
3631.3,0.07922
3633.8,0.07932
3636.3,0.0794
3638.9,0.07947
3641.4,0.0795
3644.0,0.0795
3646.6,0.07956
3649.1,0.07962
3651.7,0.07968
3654.3,0.07973
3656.9,0.07979
3659.4,0.07977
3662.0,0.07978
3664.6,0.07986
3667.2,0.07994
3669.8,0.07999
3672.4,0.08
3675.0,0.08003
3677.6,0.08009
3680.2,0.08016
3682.8,0.08021
3685.4,0.08026
3688.1,0.08026
3690.7,0.08028
3693.3,0.08029
3695.9,0.08032
3698.6,0.08034
3701.2,0.08037
3703.9,0.08039
3706.5,0.08047
3709.2,0.0806
3711.8,0.08069
3714.5,0.08065
3717.1,0.08062
3719.8,0.08067
3722.5,0.08074
3725.2,0.08077
3727.8,0.08083
3730.5,0.08084
3733.2,0.08084
3735.9,0.08092
3738.6,0.08096
3741.3,0.08099
3744.0,0.08103
3746.7,0.08105
3749.4,0.08106
3752.1,0.08107
3754.8,0.08115
3757.6,0.08125
3760.3,0.08127
3763.0,0.08132
3765.7,0.08135
3768.5,0.08138
3771.2,0.08146
3774.0,0.08144
3776.7,0.08144
3779.5,0.08145
3782.2,0.08149
3785.0,0.08149
3787.7,0.08149
3790.5,0.08154
3793.3,0.0816
3796.1,0.08168
3798.8,0.08168
3801.6,0.08165
3804.4,0.08167
3807.2,0.08172
