Database of Origin,University of Winnipeg Spectrophotometer Facility
Sample Description,Carbonaceous chondrites - RELAB archive 8. Lab-heated carbonaceous chondrites
Other Information,Heated Ivuna 400C ncmp18B
Date Added,2018-07-23 23:45:04.431432

Data ID,RLA_MET_40_3        
Sample ID,Ivuna
Mineral Name,Ivuna
Viewing Geometry,30/0/ 30
Resolution,5/ 0.6-129 nm
Material Class,CI1

Wavelength
305.0,0.014514
310.0,0.015623
315.0,0.015442
320.0,0.015298
325.0,0.015353
330.0,0.015007
335.0,0.015347
340.0,0.014853
345.0,0.014828
350.0,0.014897
355.0,0.014846
360.0,0.014796
365.0,0.014904
370.0,0.014777
375.0,0.014814
380.0,0.014878
385.0,0.014894
390.0,0.01502
395.0,0.015059
400.0,0.015207
405.0,0.015338
410.0,0.015399
415.0,0.015428
420.0,0.015552
425.0,0.015754
430.0,0.015849
435.0,0.015863
440.0,0.015952
445.0,0.015997
450.0,0.016091
455.0,0.016106
460.0,0.016199
465.0,0.016226
470.0,0.016286
475.0,0.01639
480.0,0.016636
485.0,0.016719
490.0,0.016706
495.0,0.016641
500.0,0.016784
505.0,0.016877
510.0,0.016896
515.0,0.016933
520.0,0.017085
525.0,0.017159
530.0,0.017204
535.0,0.01737
540.0,0.017486
545.0,0.017693
550.0,0.017589
555.0,0.017614
560.0,0.017681
565.0,0.017734
570.0,0.01777
575.0,0.017822
580.0,0.017853
585.0,0.01788
590.0,0.017908
595.0,0.017941
600.0,0.017982
605.0,0.017995
610.0,0.018036
615.0,0.018062
620.0,0.018076
625.0,0.018085
630.0,0.018101
635.0,0.018134
640.0,0.018168
645.0,0.018206
650.0,0.018152
655.0,0.018178
660.0,0.018121
665.0,0.018181
670.0,0.018
675.0,0.01805
680.0,0.018019
685.0,0.018093
690.0,0.018139
695.0,0.018071
700.0,0.018089
705.0,0.018028
710.0,0.018
715.0,0.018085
720.0,0.018012
725.0,0.018023
730.0,0.017975
735.0,0.018039
740.0,0.017993
745.0,0.018036
750.0,0.018202
755.0,0.018091
760.0,0.018141
765.0,0.018031
770.0,0.018047
775.0,0.018051
780.0,0.017976
785.0,0.01793
790.0,0.018082
795.0,0.017953
800.0,0.018021
805.0,0.018016
810.0,0.018197
815.0,0.017905
820.0,0.017933
825.0,0.017981
830.0,0.017967
835.0,0.018122
840.0,0.018039
845.0,0.017947
850.0,0.018095
855.0,0.017986
860.0,0.018101
865.0,0.018122
870.0,0.01816
875.0,0.018034
880.0,0.018149
885.0,0.018012
890.0,0.018177
895.0,0.018205
900.0,0.01811
905.0,0.018158
910.0,0.017991
915.0,0.018046
920.0,0.018028
925.0,0.017984
930.0,0.017967
935.0,0.018043
940.0,0.017991
945.0,0.018001
950.0,0.017993
955.0,0.017999
960.0,0.017912
965.0,0.01794
970.0,0.017884
975.0,0.017977
980.0,0.018055
985.0,0.018047
990.0,0.017967
995.0,0.018023
1000.0,0.017992
1005.0,0.017995
1010.0,0.017944
1015.0,0.017928
1020.0,0.017946
1025.0,0.018043
1030.0,0.018069
1035.0,0.01816
1040.0,0.018163
1045.0,0.018148
1050.0,0.018218
1055.0,0.018144
1060.0,0.018146
1065.0,0.018109
1070.0,0.018092
1075.0,0.018053
1080.0,0.017985
1085.0,0.018116
1090.0,0.018091
1095.0,0.018079
1100.0,0.018021
1105.0,0.018108
1110.0,0.018026
1115.0,0.018096
1120.0,0.018055
1125.0,0.018055
1130.0,0.018051
1135.0,0.018086
1140.0,0.018113
1145.0,0.018075
1150.0,0.018114
1155.0,0.018118
1160.0,0.018179
1165.0,0.018217
1170.0,0.018217
1175.0,0.018228
1180.0,0.01816
1185.0,0.018236
1190.0,0.018316
1195.0,0.018281
1200.0,0.018325
1205.0,0.018424
1210.0,0.0185
1215.0,0.01845
1220.0,0.018555
1225.0,0.018431
1230.0,0.018426
1235.0,0.01839
1240.0,0.018529
1245.0,0.018461
1250.0,0.01847
1255.0,0.018369
1260.0,0.018334
1265.0,0.018365
1270.0,0.018404
1275.0,0.018387
1280.0,0.018466
1285.0,0.018539
1290.0,0.018507
1295.0,0.018568
1300.0,0.018638
1305.0,0.018671
1310.0,0.018772
1315.0,0.018763
1320.0,0.018686
1325.0,0.018777
1330.0,0.018743
1335.0,0.018784
1340.0,0.018835
1345.0,0.018941
1350.0,0.019029
1355.0,0.018927
1360.0,0.019026
1365.0,0.019023
1370.0,0.018958
1375.0,0.018907
1380.0,0.019047
1385.0,0.018987
1390.0,0.018982
1395.0,0.019057
1400.0,0.019035
1405.0,0.019136
1410.0,0.019007
1415.0,0.019091
1420.0,0.019036
1425.0,0.019093
1430.0,0.019173
1435.0,0.019077
1440.0,0.019091
1445.0,0.019157
1450.0,0.019198
1455.0,0.019178
1460.0,0.019247
1465.0,0.01918
1470.0,0.019054
1475.0,0.01919
1480.0,0.01917
1485.0,0.019211
1490.0,0.019283
1495.0,0.019295
1500.0,0.019342
1505.0,0.019393
1510.0,0.019344
1515.0,0.019428
1520.0,0.019391
1525.0,0.019493
1530.0,0.019465
1535.0,0.019556
1540.0,0.019463
1545.0,0.019366
1550.0,0.019382
1555.0,0.019427
1560.0,0.019305
1565.0,0.019351
1570.0,0.019319
1575.0,0.019388
1580.0,0.019366
1585.0,0.019432
1590.0,0.019478
1595.0,0.019485
1600.0,0.019385
1605.0,0.019404
1610.0,0.019441
1615.0,0.019539
1620.0,0.019499
1625.0,0.019487
1630.0,0.019573
1635.0,0.019547
1640.0,0.019575
1645.0,0.019593
1650.0,0.019677
1655.0,0.01966
1660.0,0.019671
1665.0,0.019699
1670.0,0.019777
1675.0,0.0198
1680.0,0.019772
1685.0,0.019735
1690.0,0.019782
1695.0,0.019756
1700.0,0.019674
1705.0,0.019843
1710.0,0.019731
1715.0,0.01983
1720.0,0.019805
1725.0,0.019769
1730.0,0.01997
1735.0,0.019895
1740.0,0.019816
1745.0,0.019777
1750.0,0.019775
1755.0,0.019806
1760.0,0.019644
1765.0,0.019827
1770.0,0.019764
1775.0,0.019894
1780.0,0.019835
1785.0,0.019906
1790.0,0.019769
1795.0,0.019621
1800.0,0.019612
1805.0,0.01978
1810.0,0.019786
1815.0,0.0198
1820.0,0.019829
1825.0,0.019901
1830.0,0.019883
1835.0,0.019925
1840.0,0.019897
1845.0,0.019989
1850.0,0.019946
1855.0,0.02002
1860.0,0.02
1865.0,0.019973
1870.0,0.020074
1875.0,0.020013
1880.0,0.020001
1885.0,0.019918
1890.0,0.02019
1895.0,0.020199
1900.0,0.020263
1905.0,0.020171
1910.0,0.019927
1915.0,0.020082
1920.0,0.020024
1925.0,0.020078
1930.0,0.020082
1935.0,0.020122
1940.0,0.020196
1945.0,0.020178
1950.0,0.020227
1955.0,0.020209
1960.0,0.020171
1965.0,0.020346
1970.0,0.02019
1975.0,0.020253
1980.0,0.02019
1985.0,0.020137
1990.0,0.020249
1995.0,0.020204
2000.0,0.020208
2005.0,0.020259
2010.0,0.020237
2015.0,0.020209
2020.0,0.020184
2025.0,0.020312
2030.0,0.020269
2035.0,0.020235
2040.0,0.020229
2045.0,0.020184
2050.0,0.020143
2055.0,0.020245
2060.0,0.020281
2065.0,0.02023
2070.0,0.020367
2075.0,0.020496
2080.0,0.020449
2085.0,0.020448
2090.0,0.020318
2095.0,0.020346
2100.0,0.02046
2105.0,0.02036
2110.0,0.020464
2115.0,0.020295
2120.0,0.020469
2125.0,0.020474
2130.0,0.020385
2135.0,0.020432
2140.0,0.020378
2145.0,0.020492
2150.0,0.020464
2155.0,0.020408
2160.0,0.020442
2165.0,0.020535
2170.0,0.020467
2175.0,0.020526
2180.0,0.020438
2185.0,0.02047
2190.0,0.020564
2195.0,0.02046
2200.0,0.020508
2205.0,0.02052
2210.0,0.020629
2215.0,0.020476
2220.0,0.020586
2225.0,0.020548
2230.0,0.020378
2235.0,0.020569
2240.0,0.02038
2245.0,0.020572
2250.0,0.020428
2255.0,0.020655
2260.0,0.020533
2265.0,0.020614
2270.0,0.020584
2275.0,0.020531
2280.0,0.020442
2285.0,0.020513
2290.0,0.020636
2295.0,0.02052
2300.0,0.020621
2305.0,0.020524
2310.0,0.020489
2315.0,0.0205
2320.0,0.020535
2325.0,0.020508
2330.0,0.020543
2335.0,0.020468
2340.0,0.020464
2345.0,0.020481
2350.0,0.020461
2355.0,0.02051
2360.0,0.020635
2365.0,0.020684
2370.0,0.020776
2375.0,0.020697
2380.0,0.020827
2385.0,0.020654
2390.0,0.020677
2395.0,0.020787
2400.0,0.020716
2405.0,0.020813
2410.0,0.020828
2415.0,0.020809
2420.0,0.020797
2425.0,0.020838
2430.0,0.020876
2435.0,0.020773
2440.0,0.020756
2445.0,0.020748
2450.0,0.020715
2455.0,0.02081
2460.0,0.020746
2465.0,0.020691
2470.0,0.020728
2475.0,0.020592
2480.0,0.02082
2485.0,0.020877
2490.0,0.020685
2495.0,0.02069
2500.0,0.020669
2502.0,0.020734
2503.2,0.020801
2504.41,0.020742
2505.62,0.020708
2506.83,0.020765
2508.05,0.020864
2509.26,0.020927
2510.48,0.020913
2511.69,0.020914
2512.91,0.020866
2514.13,0.020862
2515.35,0.020888
2516.57,0.020833
2517.79,0.020819
2519.02,0.020964
2520.24,0.020972
2521.47,0.020966
2522.69,0.021054
2523.92,0.021169
2525.15,0.021143
2526.38,0.020956
2527.61,0.020829
2528.85,0.020885
2530.08,0.020894
2531.32,0.020925
2532.55,0.020977
2533.79,0.020941
2535.03,0.020971
2536.27,0.021013
2537.51,0.020903
2538.75,0.02095
2540.0,0.02101
2541.24,0.020874
2542.49,0.020955
2543.74,0.021202
2544.99,0.021223
2546.24,0.021166
2547.49,0.021153
2548.74,0.021118
2549.99,0.020992
2551.25,0.020967
2552.5,0.021057
2553.76,0.021075
2555.02,0.021026
2556.28,0.020923
2557.54,0.020871
2558.8,0.021068
2560.07,0.021202
2561.33,0.02121
2562.6,0.021157
2563.86,0.021088
2565.13,0.021119
2566.4,0.021194
2567.67,0.021245
2568.95,0.021155
2570.22,0.021071
2571.5,0.021099
2572.77,0.021036
2574.05,0.020966
2575.33,0.021066
2576.61,0.021224
2577.89,0.021285
2579.17,0.02126
2580.46,0.021245
2581.74,0.021222
2583.03,0.021099
2584.31,0.021061
2585.6,0.021093
2586.89,0.021173
2588.19,0.021315
2589.48,0.021263
2590.77,0.021186
2592.07,0.021323
2593.36,0.021425
2594.66,0.021345
2595.96,0.0212
2597.26,0.021261
2598.56,0.021348
2599.87,0.021461
2601.17,0.021566
2602.48,0.021454
2603.78,0.021455
2605.09,0.021384
2606.4,0.021292
2607.71,0.021331
2609.03,0.021363
2610.34,0.021455
2611.66,0.021507
2612.97,0.021415
2614.29,0.021474
2615.61,0.021482
2616.93,0.021429
2618.25,0.021425
2619.57,0.021499
2620.9,0.021513
2622.22,0.021452
2623.55,0.021472
2624.88,0.021493
2626.21,0.021545
2627.54,0.021595
2628.87,0.021606
2630.21,0.021603
2631.54,0.021484
2632.88,0.02154
2634.21,0.021642
2635.55,0.021645
2636.89,0.021608
2638.24,0.021588
2639.58,0.021511
2640.92,0.021518
2642.27,0.021531
2643.62,0.021553
2644.97,0.021578
2646.32,0.02162
2647.67,0.021564
2649.02,0.021453
2650.38,0.021524
2651.73,0.021597
2653.09,0.021615
2654.45,0.021704
2655.81,0.021676
2657.17,0.021504
2658.53,0.021435
2659.89,0.021478
2661.26,0.021459
2662.63,0.021457
2664.0,0.021505
2665.36,0.021669
2666.74,0.021616
2668.11,0.021494
2669.48,0.02158
2670.86,0.021585
2672.23,0.021497
2673.61,0.021506
2674.99,0.021567
2676.37,0.021533
2677.76,0.021426
2679.14,0.021444
2680.52,0.021517
2681.91,0.021513
2683.3,0.021398
2684.69,0.021262
2686.08,0.021188
2687.47,0.021123
2688.87,0.021048
2690.26,0.020965
2691.66,0.020737
2693.06,0.020612
2694.46,0.020545
2695.86,0.020562
2697.26,0.020454
2698.66,0.020218
2700.07,0.020104
2701.48,0.019973
2702.89,0.019804
2704.3,0.019716
2705.71,0.019594
2707.12,0.019502
2708.53,0.019464
2709.95,0.019453
2711.37,0.019489
2712.79,0.019551
2714.21,0.019454
2715.63,0.019337
2717.05,0.019385
2718.48,0.019491
2719.9,0.01948
2721.33,0.019415
2722.76,0.019455
2724.19,0.019622
2725.62,0.019744
2727.06,0.019749
2728.49,0.01981
2729.93,0.019815
2731.37,0.019848
2732.81,0.01987
2734.25,0.019753
2735.69,0.019764
2737.14,0.019848
2738.58,0.019872
2740.03,0.019929
2741.48,0.019983
2742.93,0.019971
2744.38,0.019998
2745.83,0.020049
2747.29,0.020086
2748.75,0.020097
2750.2,0.020154
2751.66,0.020131
2753.13,0.020132
2754.59,0.020152
2756.05,0.020127
2757.52,0.020143
2758.99,0.020169
2760.46,0.02022
2761.93,0.020269
2763.4,0.020283
2764.87,0.020292
2766.35,0.020295
2767.82,0.020318
2769.3,0.020335
2770.78,0.02033
2772.26,0.020294
2773.75,0.020296
2775.23,0.020325
2776.72,0.020394
2778.21,0.020456
2779.7,0.020358
2781.19,0.020298
2782.68,0.020357
2784.18,0.020471
2785.67,0.020466
2787.17,0.020438
2788.67,0.020498
2790.17,0.02044
2791.67,0.020483
2793.18,0.020513
2794.68,0.020403
2796.19,0.02041
2797.7,0.020461
2799.21,0.02041
2800.72,0.020373
2802.24,0.020336
2803.75,0.020174
2805.27,0.02005
2806.79,0.020105
2808.31,0.020152
2809.83,0.020165
2811.35,0.02031
2812.88,0.02044
2814.41,0.020463
2815.93,0.020417
2817.46,0.020395
2819.0,0.02044
2820.53,0.020417
2822.07,0.020346
2823.6,0.020287
2825.14,0.020349
2826.68,0.020438
2828.22,0.020433
2829.77,0.020361
2831.31,0.020319
2832.86,0.020376
2834.41,0.020384
2835.96,0.020415
2837.51,0.0205
2839.07,0.020526
2840.62,0.020468
2842.18,0.020378
2843.74,0.02036
2845.3,0.020377
2846.86,0.020442
2848.43,0.020491
2849.99,0.020433
2851.56,0.020462
2853.13,0.02046
2854.7,0.020388
2856.27,0.02044
2857.85,0.020564
2859.42,0.020626
2861.0,0.020506
2862.58,0.020386
2864.16,0.02043
2865.75,0.020463
2867.33,0.020449
2868.92,0.020399
2870.51,0.020474
2872.1,0.020527
2873.69,0.020512
2875.28,0.020466
2876.88,0.020474
2878.48,0.020484
2880.07,0.020485
2881.68,0.020424
2883.28,0.020448
2884.88,0.020517
2886.49,0.020531
2888.1,0.020541
2889.71,0.020583
2891.32,0.020557
2892.93,0.020554
2894.55,0.020575
2896.16,0.020579
2897.78,0.020559
2899.4,0.020605
2901.03,0.020642
2902.65,0.020673
2904.28,0.020721
2905.91,0.020694
2907.54,0.020653
2909.17,0.020657
2910.8,0.020668
2912.44,0.020675
2914.07,0.020676
2915.71,0.020637
2917.35,0.020625
2918.99,0.020676
2920.64,0.020767
2922.29,0.020818
2923.93,0.020801
2925.58,0.020743
2927.24,0.020744
2928.89,0.020778
2930.55,0.020829
2932.2,0.020892
2933.86,0.020868
2935.52,0.020824
2937.19,0.020807
2938.85,0.020791
2940.52,0.020771
2942.19,0.020787
2943.86,0.020906
2945.53,0.020992
2947.21,0.020899
2948.88,0.020819
2950.56,0.020835
2952.24,0.020838
2953.92,0.020917
2955.61,0.02093
2957.29,0.02093
2958.98,0.020872
2960.67,0.020864
2962.36,0.020904
2964.06,0.02088
2965.75,0.020933
2967.45,0.020949
2969.15,0.020866
2970.85,0.020911
2972.55,0.020986
2974.26,0.020953
2975.97,0.020941
2977.68,0.020947
2979.39,0.021014
2981.1,0.020987
2982.82,0.020937
2984.53,0.021018
2986.25,0.021051
2987.97,0.021009
2989.7,0.021014
2991.42,0.020981
2993.15,0.021043
2994.88,0.021073
2996.61,0.021093
2998.34,0.021148
3000.08,0.02108
3001.82,0.021038
3003.55,0.021133
3005.3,0.021129
3007.04,0.021022
3008.78,0.021037
3010.53,0.021141
3012.28,0.021192
3014.03,0.021118
3015.79,0.021084
3017.54,0.021154
3019.3,0.021198
3021.06,0.021241
3022.82,0.021238
3024.58,0.021144
3026.35,0.021085
3028.12,0.021112
3029.89,0.021177
3031.66,0.021248
3033.43,0.021283
3035.21,0.021205
3036.99,0.021224
3038.77,0.021334
3040.55,0.021362
3042.33,0.021356
3044.12,0.021321
3045.91,0.02127
3047.7,0.021288
3049.49,0.021218
3051.29,0.021209
3053.08,0.021287
3054.88,0.021367
3056.68,0.021377
3058.49,0.021354
3060.29,0.021329
3062.1,0.021389
3063.91,0.021451
3065.72,0.021477
3067.54,0.021501
3069.35,0.021518
3071.17,0.021508
3072.99,0.021479
3074.81,0.021489
3076.64,0.021557
3078.47,0.021611
3080.29,0.021598
3082.13,0.021561
3083.96,0.021587
3085.79,0.021611
3087.63,0.021565
3089.47,0.021619
3091.31,0.021677
3093.16,0.021695
3095.01,0.021789
3096.85,0.021805
3098.71,0.021767
3100.56,0.02183
3102.41,0.021838
3104.27,0.021811
3106.13,0.021815
3107.99,0.021785
3109.86,0.021818
3111.73,0.021912
3113.59,0.021954
3115.47,0.021932
3117.34,0.021936
3119.21,0.021992
3121.09,0.021925
3122.97,0.02189
3124.86,0.022005
3126.74,0.02211
3128.63,0.022154
3130.52,0.022135
3132.41,0.022079
3134.3,0.022101
3136.2,0.02218
3138.1,0.022226
3140.0,0.022166
3141.9,0.022156
3143.81,0.022202
3145.71,0.022212
3147.62,0.02221
3149.54,0.022161
3151.45,0.022222
3153.37,0.022263
3155.29,0.022268
3157.21,0.022271
3159.13,0.022278
3161.06,0.022345
3162.99,0.022352
3164.92,0.022317
3166.85,0.022381
3168.79,0.022466
3170.72,0.022408
3172.67,0.022392
3174.61,0.022396
3176.55,0.022414
3178.5,0.022428
3180.45,0.02244
3182.4,0.02252
3184.36,0.022519
3186.32,0.022483
3188.27,0.022607
3190.24,0.022708
3192.2,0.022703
3194.17,0.022634
3196.14,0.022627
3198.11,0.022658
3200.08,0.022681
3202.06,0.022706
3204.04,0.022662
3206.02,0.022672
3208.0,0.022695
3209.99,0.022714
3211.98,0.022723
3213.97,0.022727
3215.96,0.022743
3217.96,0.022768
3219.96,0.022798
3221.96,0.022815
3223.96,0.022834
3225.97,0.022838
3227.98,0.022802
3229.99,0.022783
3232.0,0.022817
3234.02,0.022865
3236.04,0.022919
3238.06,0.022879
3240.08,0.022857
3242.11,0.022862
3244.14,0.022891
3246.17,0.02295
3248.2,0.022895
3250.24,0.022884
3252.28,0.022902
3254.32,0.022883
3256.37,0.022915
3258.41,0.022951
3260.46,0.022943
3262.51,0.022931
3264.57,0.022962
3266.63,0.022965
3268.69,0.022996
3270.75,0.023042
3272.81,0.022979
3274.88,0.022967
3276.95,0.022957
3279.02,0.02294
3281.1,0.022911
3283.18,0.022902
3285.26,0.022905
3287.34,0.022943
3289.43,0.022902
3291.51,0.022856
3293.61,0.022958
3295.7,0.022964
3297.8,0.022942
3299.9,0.02295
3302.0,0.022957
3304.1,0.02296
3306.21,0.022969
3308.32,0.02299
3310.43,0.023047
3312.55,0.023131
3314.66,0.023128
3316.79,0.023062
3318.91,0.02308
3321.03,0.02316
3323.16,0.023115
3325.29,0.023023
3327.43,0.023069
3329.57,0.023112
3331.71,0.023095
3333.85,0.023104
3335.99,0.023133
3338.14,0.023139
3340.29,0.023158
3342.45,0.023186
3344.6,0.02322
3346.76,0.023234
3348.92,0.02319
3351.09,0.023168
3353.26,0.023199
3355.43,0.023161
3357.6,0.023148
3359.78,0.02318
3361.96,0.023218
3364.14,0.023177
3366.32,0.023099
3368.51,0.023046
3370.7,0.023084
3372.89,0.023121
3375.09,0.023105
3377.29,0.023118
3379.49,0.02316
3381.69,0.023177
3383.9,0.023167
3386.11,0.023148
3388.32,0.023166
3390.54,0.023141
3392.76,0.023072
3394.98,0.023094
3397.21,0.023148
3399.43,0.023156
3401.66,0.023128
3403.9,0.023099
3406.13,0.023082
3408.37,0.023077
3410.61,0.023059
3412.86,0.023075
3415.11,0.023104
3417.36,0.023139
3419.61,0.023092
3421.87,0.023024
3424.13,0.023001
3426.39,0.023025
3428.66,0.02308
3430.93,0.023097
3433.2,0.023079
3435.48,0.023067
3437.76,0.023068
3440.04,0.023068
3442.32,0.023039
3444.61,0.02304
3446.9,0.023118
3449.19,0.023178
3451.49,0.023205
3453.79,0.023223
3456.09,0.023228
3458.4,0.023243
3460.7,0.023246
3463.02,0.023255
3465.33,0.023308
3467.65,0.023321
3469.97,0.023357
3472.29,0.023397
3474.62,0.02338
3476.95,0.023379
3479.29,0.023381
3481.62,0.023347
3483.96,0.023341
3486.3,0.023424
3488.65,0.023507
3491.0,0.023502
3493.35,0.023516
3495.71,0.023518
3498.07,0.023486
3500.43,0.023509
3502.79,0.023549
3505.16,0.023587
3507.53,0.023612
3509.91,0.023616
3512.29,0.023622
3514.67,0.02366
3517.05,0.02368
3519.44,0.023696
3521.83,0.023765
3524.23,0.023867
3526.62,0.023884
3529.02,0.023924
3531.43,0.023941
3533.83,0.023947
3536.24,0.024012
3538.66,0.024026
3541.08,0.024018
3543.5,0.024028
3545.92,0.024068
3548.35,0.024092
3550.78,0.024115
3553.21,0.024185
3555.65,0.024193
3558.09,0.024208
3560.53,0.024236
3562.98,0.024168
3565.43,0.024105
3567.88,0.024151
3570.34,0.024203
3572.8,0.024246
3575.27,0.024298
3577.73,0.024345
3580.2,0.024354
3582.68,0.024339
3585.16,0.024288
3587.64,0.024302
3590.12,0.024343
3592.61,0.024385
3595.1,0.024435
3597.6,0.024491
3600.09,0.024453
3602.6,0.02439
3605.1,0.024399
3607.61,0.024439
3610.12,0.024478
3612.64,0.024496
3615.16,0.024533
3617.68,0.024538
3620.21,0.024518
3622.74,0.024513
3625.27,0.024479
3627.81,0.024457
3630.35,0.024511
3632.89,0.024508
3635.44,0.02453
3637.99,0.024523
3640.54,0.024505
3643.1,0.024543
3645.66,0.024574
3648.23,0.024588
3650.8,0.024617
3653.37,0.024627
3655.95,0.024601
3658.53,0.024623
3661.11,0.024648
3663.7,0.024569
3666.29,0.024593
3668.89,0.024669
3671.48,0.024669
3674.09,0.024702
3676.69,0.024774
3679.3,0.024773
3681.91,0.024787
3684.53,0.024797
3687.15,0.024786
3689.78,0.024777
3692.4,0.024741
3695.04,0.024766
3697.67,0.024852
3700.31,0.024874
3702.95,0.024856
3705.6,0.024827
3708.25,0.024815
3710.91,0.024803
3713.56,0.024797
3716.23,0.024825
3718.89,0.024859
3721.56,0.024866
3724.23,0.024867
3726.91,0.024885
3729.59,0.02492
3732.28,0.024893
3734.97,0.024928
3737.66,0.024956
3740.36,0.024899
3743.06,0.024893
3745.76,0.024893
3748.47,0.024926
3751.18,0.02494
