Database of Origin,University of Winnipeg Spectrophotometer Facility
Sample Description,16.6. Meteorites - Carbonaceous chondrites 16.6.3. Samples from Pierre Hudon (JSC) - April 2004 (b) RELAB + Nicolet merged spectra
Date Added,2018-07-23 23:44:29.026877

Data ID,RLA_MET_27_1        
Sample ID,MET01070
Mineral Name,Carbonaceous Chondrite
Grain Size,<75
Viewing Geometry,30/0/30
Resolution,5/0.3-475
Material Class,CM1

Wavelength
305.0,0.03412
310.0,0.0339
315.0,0.0343
320.0,0.03453
325.0,0.03521
330.0,0.03623
335.0,0.03691
340.0,0.03772
345.0,0.03847
350.0,0.03894
355.0,0.03935
360.0,0.04017
365.0,0.04071
370.0,0.04143
375.0,0.0421
380.0,0.04246
385.0,0.04301
390.0,0.04381
395.0,0.04473
400.0,0.04459
405.0,0.04483
410.0,0.04534
415.0,0.04559
420.0,0.04609
425.0,0.04641
430.0,0.04692
435.0,0.04728
440.0,0.0476
445.0,0.04782
450.0,0.04808
455.0,0.04824
460.0,0.04839
465.0,0.04871
470.0,0.04895
475.0,0.04934
480.0,0.04962
485.0,0.04985
490.0,0.05001
495.0,0.05015
500.0,0.05031
505.0,0.05051
510.0,0.05068
515.0,0.05076
520.0,0.05082
525.0,0.05087
530.0,0.05096
535.0,0.05096
540.0,0.05101
545.0,0.05106
550.0,0.05098
555.0,0.05098
560.0,0.05089
565.0,0.05083
570.0,0.05073
575.0,0.05066
580.0,0.05055
585.0,0.05047
590.0,0.05031
595.0,0.05021
600.0,0.05006
605.0,0.05002
610.0,0.04991
615.0,0.04985
620.0,0.04968
625.0,0.04961
630.0,0.04948
635.0,0.04943
640.0,0.04927
645.0,0.04919
650.0,0.04902
655.0,0.04892
660.0,0.04881
665.0,0.04866
670.0,0.04859
675.0,0.04839
680.0,0.04829
685.0,0.04814
690.0,0.04805
695.0,0.048
700.0,0.04792
705.0,0.04782
710.0,0.04781
715.0,0.04779
720.0,0.04772
725.0,0.04757
730.0,0.04756
735.0,0.04762
740.0,0.04758
745.0,0.04763
750.0,0.04762
755.0,0.04768
760.0,0.04773
765.0,0.04778
770.0,0.04792
775.0,0.04789
780.0,0.04799
785.0,0.04806
790.0,0.04818
795.0,0.04839
800.0,0.04856
805.0,0.04857
810.0,0.04863
815.0,0.04863
820.0,0.04871
825.0,0.04872
830.0,0.04873
835.0,0.04869
840.0,0.04869
845.0,0.04866
850.0,0.04867
855.0,0.04853
860.0,0.04851
865.0,0.04842
870.0,0.04835
875.0,0.04839
880.0,0.04841
885.0,0.04829
890.0,0.04823
895.0,0.04817
900.0,0.04806
905.0,0.04805
910.0,0.04803
915.0,0.04807
920.0,0.04806
925.0,0.04802
930.0,0.04799
935.0,0.04801
940.0,0.04799
945.0,0.04798
950.0,0.04805
955.0,0.04802
960.0,0.04805
965.0,0.04808
970.0,0.04813
975.0,0.04807
980.0,0.04808
985.0,0.0481
990.0,0.04811
995.0,0.04807
1000.0,0.04813
1005.0,0.04818
1010.0,0.04819
1015.0,0.04817
1020.0,0.04819
1025.0,0.0482
1030.0,0.0482
1035.0,0.04815
1040.0,0.04817
1045.0,0.0482
1050.0,0.04816
1055.0,0.04812
1060.0,0.0481
1065.0,0.04802
1070.0,0.04793
1075.0,0.04787
1080.0,0.04781
1085.0,0.04776
1090.0,0.04777
1095.0,0.04778
1100.0,0.04778
1105.0,0.04776
1110.0,0.04776
1115.0,0.04776
1120.0,0.04772
1125.0,0.04768
1130.0,0.04766
1135.0,0.04763
1140.0,0.04766
1145.0,0.04765
1150.0,0.0477
1155.0,0.04773
1160.0,0.04776
1165.0,0.04773
1170.0,0.04777
1175.0,0.04779
1180.0,0.04781
1185.0,0.04783
1190.0,0.04785
1195.0,0.04785
1200.0,0.04792
1205.0,0.04801
1210.0,0.04805
1215.0,0.04812
1220.0,0.04814
1225.0,0.04808
1230.0,0.048
1235.0,0.04795
1240.0,0.04787
1245.0,0.04785
1250.0,0.04784
1255.0,0.04789
1260.0,0.04791
1265.0,0.04794
1270.0,0.04798
1275.0,0.04799
1280.0,0.04795
1285.0,0.048
1290.0,0.04807
1295.0,0.04806
1300.0,0.0481
1305.0,0.04813
1310.0,0.04815
1315.0,0.04816
1320.0,0.04824
1325.0,0.04825
1330.0,0.04828
1335.0,0.0483
1340.0,0.0483
1345.0,0.04822
1350.0,0.04817
1350.7,0.04815
1351.0,0.04815
1351.3,0.04813
1351.7,0.04811
1352.1,0.0481
1352.4,0.04816
1352.8,0.04819
1353.1,0.0482
1353.5,0.04822
1353.8,0.04821
1354.2,0.04817
1354.5,0.04817
1354.9,0.04817
1355.2,0.04818
1355.6,0.0482
1355.9,0.04818
1356.3,0.04814
1356.7,0.04813
1357.0,0.04815
1357.4,0.04819
1357.7,0.04816
1358.1,0.04815
1358.4,0.04819
1358.8,0.04823
1359.2,0.0482
1359.5,0.04817
1359.9,0.0482
1360.2,0.04822
1360.6,0.0482
1360.9,0.04818
1361.3,0.04813
1361.7,0.04811
1362.0,0.04815
1362.4,0.04816
1362.7,0.04822
1363.1,0.04824
1363.4,0.0482
1363.8,0.0482
1364.2,0.04816
1364.5,0.04815
1364.9,0.04819
1365.2,0.04823
1365.6,0.04823
1365.9,0.0482
1366.3,0.04821
1366.7,0.04824
1367.0,0.04824
1367.4,0.04826
1367.8,0.04824
1368.1,0.0482
1368.5,0.04818
1368.8,0.0482
1369.2,0.04824
1369.6,0.04824
1369.9,0.04824
1370.3,0.04825
1370.7,0.04827
1371.0,0.04826
1371.4,0.04819
1371.7,0.0482
1372.1,0.04823
1372.5,0.04826
1372.8,0.04825
1373.2,0.04825
1373.6,0.04822
1373.9,0.0482
1374.3,0.04823
1374.6,0.04827
1375.0,0.04827
1375.4,0.04827
1375.7,0.04829
1376.1,0.04826
1376.5,0.04828
1376.8,0.04827
1377.2,0.04824
1377.6,0.04824
1377.9,0.04826
1378.3,0.04826
1378.7,0.04826
1379.0,0.04828
1379.4,0.04825
1379.8,0.04824
1380.1,0.04827
1380.5,0.04828
1380.9,0.04825
1381.2,0.04821
1381.6,0.04823
1382.0,0.04825
1382.3,0.04824
1382.7,0.04823
1383.1,0.04821
1383.4,0.04822
1383.8,0.04824
1384.2,0.04823
1384.6,0.04822
1384.9,0.04824
1385.3,0.0482
1385.7,0.04816
1386.0,0.04818
1386.4,0.04816
1386.8,0.04813
1387.2,0.04817
1387.5,0.04822
1387.9,0.04824
1388.3,0.04822
1388.6,0.04817
1389.0,0.04815
1389.4,0.04815
1389.8,0.04817
1390.1,0.04818
1390.5,0.04817
1390.9,0.04817
1391.2,0.04817
1391.6,0.04817
1392.0,0.04817
1392.4,0.04816
1392.7,0.04818
1393.1,0.04825
1393.5,0.04824
1393.9,0.04819
1394.2,0.04818
1394.6,0.04817
1395.0,0.04818
1395.4,0.0482
1395.7,0.04819
1396.1,0.04822
1396.5,0.04822
1396.9,0.04821
1397.2,0.04818
1397.6,0.04817
1398.0,0.0482
1398.4,0.04825
1398.8,0.04826
1399.1,0.04823
1399.5,0.04822
1399.9,0.04823
1400.3,0.0482
1400.6,0.0482
1401.0,0.04822
1401.4,0.04821
1401.8,0.04822
1402.2,0.0482
1402.5,0.04819
1402.9,0.0482
1403.3,0.0482
1403.7,0.04819
1404.1,0.04819
1404.4,0.04819
1404.8,0.04822
1405.2,0.04825
1405.6,0.04824
1406.0,0.04826
1406.3,0.04826
1406.7,0.04825
1407.1,0.04828
1407.5,0.04829
1407.9,0.04831
1408.3,0.0483
1408.6,0.04824
1409.0,0.04824
1409.4,0.04829
1409.8,0.04831
1410.2,0.04828
1410.6,0.04827
1410.9,0.04828
1411.3,0.04829
1411.7,0.04828
1412.1,0.04828
1412.5,0.04826
1412.8,0.04827
1413.2,0.0483
1413.6,0.04833
1414.0,0.04831
1414.4,0.04829
1414.8,0.0483
1415.2,0.04829
1415.6,0.04827
1415.9,0.04826
1416.3,0.04826
1416.7,0.04826
1417.1,0.04829
1417.5,0.04831
1417.9,0.0483
1418.3,0.04827
1418.7,0.04824
1419.0,0.04828
1419.4,0.04832
1419.8,0.04835
1420.2,0.04837
1420.6,0.04837
1421.0,0.04835
1421.4,0.04839
1421.8,0.04839
1422.2,0.04838
1422.5,0.04838
1422.9,0.04838
1423.3,0.04837
1423.7,0.04836
1424.1,0.04835
1424.5,0.04833
1424.9,0.04833
1425.3,0.04832
1425.7,0.04833
1426.1,0.04838
1426.5,0.04838
1426.8,0.04837
1427.2,0.04838
1427.6,0.04838
1428.0,0.04834
1428.4,0.04833
1428.8,0.04837
1429.2,0.04842
1429.6,0.04838
1430.0,0.04837
1430.4,0.04834
1430.8,0.04834
1431.2,0.04838
1431.6,0.04839
1432.0,0.04836
1432.4,0.04833
1432.8,0.04834
1433.2,0.04836
1433.6,0.04842
1433.9,0.04843
1434.3,0.04836
1434.8,0.04836
1435.1,0.04838
1435.5,0.04839
1435.9,0.04844
1436.3,0.04845
1436.7,0.04842
1437.1,0.04839
1437.5,0.04837
1437.9,0.04839
1438.3,0.04842
1438.7,0.04842
1439.1,0.04843
1439.5,0.04842
1439.9,0.04843
1440.3,0.04844
1440.7,0.04845
1441.1,0.04845
1441.5,0.04844
1441.9,0.0484
1442.3,0.04837
1442.7,0.04839
1443.1,0.04843
1443.5,0.04842
1443.9,0.0484
1444.3,0.04841
1444.7,0.04842
1445.1,0.04844
1445.6,0.04842
1445.9,0.04842
1446.3,0.04843
1446.8,0.04844
1447.2,0.04846
1447.6,0.04846
1448.0,0.04847
1448.4,0.04849
1448.8,0.04847
1449.2,0.04845
1449.6,0.04843
1450.0,0.04841
1450.4,0.04844
1450.8,0.04848
1451.2,0.04848
1451.6,0.04848
1452.0,0.0485
1452.4,0.0485
1452.8,0.04844
1453.2,0.04844
1453.7,0.04846
1454.1,0.04848
1454.5,0.04845
1454.9,0.04845
1455.3,0.04849
1455.7,0.04848
1456.1,0.04845
1456.5,0.04844
1456.9,0.04847
1457.3,0.04849
1457.7,0.04848
1458.2,0.04848
1458.6,0.04847
1459.0,0.04845
1459.4,0.04848
1459.8,0.04851
1460.2,0.04852
1460.6,0.04848
1461.0,0.04847
1461.4,0.04852
1461.8,0.04855
1462.3,0.04854
1462.7,0.04849
1463.1,0.0485
1463.5,0.04854
1463.9,0.04854
1464.3,0.04852
1464.7,0.04851
1465.2,0.04848
1465.6,0.04846
1466.0,0.04849
1466.4,0.04853
1466.8,0.04852
1467.2,0.04851
1467.6,0.04851
1468.1,0.04852
1468.5,0.04853
1468.9,0.04853
1469.3,0.04852
1469.7,0.0485
1470.1,0.04848
1470.6,0.04853
1471.0,0.04854
1471.4,0.04852
1471.8,0.04851
1472.2,0.04849
1472.6,0.04851
1473.1,0.04855
1473.5,0.04855
1473.9,0.04856
1474.3,0.04856
1474.7,0.04858
1475.2,0.04859
1475.6,0.04856
1476.0,0.04851
1476.4,0.0485
1476.8,0.0485
1477.3,0.04852
1477.7,0.04854
1478.1,0.04852
1478.5,0.04854
1478.9,0.04854
1479.4,0.04854
1479.8,0.04858
1480.2,0.04859
1480.6,0.04858
1481.1,0.04858
1481.5,0.04857
1481.9,0.04853
1482.3,0.04853
1482.8,0.04853
1483.2,0.04854
1483.6,0.04857
1484.0,0.04858
1484.4,0.04856
1484.9,0.04855
1485.3,0.04856
1485.7,0.0486
1486.2,0.04861
1486.6,0.04861
1487.0,0.04856
1487.4,0.04854
1487.9,0.04855
1488.3,0.04857
1488.7,0.04859
1489.1,0.04861
1489.6,0.0486
1490.0,0.04859
1490.4,0.04858
1490.8,0.04857
1491.3,0.04855
1491.7,0.04854
1492.1,0.04854
1492.6,0.04857
1493.0,0.04859
1493.4,0.04858
1493.9,0.04857
1494.3,0.04858
1494.7,0.04861
1495.2,0.04864
1495.6,0.04863
1496.0,0.04861
1496.4,0.0486
1496.9,0.04861
1497.3,0.04861
1497.7,0.04862
1498.2,0.04862
1498.6,0.0486
1499.0,0.0486
1499.5,0.04862
1499.9,0.04865
1500.3,0.04866
1500.8,0.04862
1501.2,0.04863
1501.7,0.04861
1502.1,0.04861
1502.5,0.04859
1502.9,0.04861
1503.4,0.04863
1503.8,0.04862
1504.3,0.0486
1504.7,0.04858
1505.1,0.0486
1505.6,0.04864
1506.0,0.04864
1506.4,0.04862
1506.9,0.0486
1507.3,0.04859
1507.8,0.04861
1508.2,0.04862
1508.6,0.04861
1509.1,0.04862
1509.5,0.04862
1510.0,0.04856
1510.4,0.04855
1510.8,0.04863
1511.3,0.04866
1511.7,0.04863
1512.2,0.04859
1512.6,0.04862
1513.0,0.04864
1513.5,0.04864
1513.9,0.0486
1514.4,0.04862
1514.8,0.04865
1515.3,0.04865
1515.7,0.04867
1516.1,0.04868
1516.6,0.04865
1517.0,0.04865
1517.5,0.04866
1517.9,0.04868
1518.4,0.04866
1518.8,0.04867
1519.3,0.04865
1519.7,0.0486
1520.1,0.04861
1520.6,0.04865
1521.0,0.04866
1521.5,0.04866
1521.9,0.04865
1522.4,0.04863
1522.8,0.04864
1523.3,0.04865
1523.7,0.04865
1524.2,0.04862
1524.6,0.04864
1525.1,0.04869
1525.5,0.0487
1525.9,0.04868
1526.4,0.04869
1526.8,0.04867
1527.3,0.04865
1527.8,0.04865
1528.2,0.04868
1528.7,0.04868
1529.1,0.04868
1529.6,0.0487
1530.0,0.04871
1530.5,0.04869
1530.9,0.04868
1531.4,0.04866
1531.8,0.04868
1532.3,0.04868
1532.7,0.04867
1533.2,0.04868
1533.6,0.0487
1534.1,0.04869
1534.5,0.04865
1535.0,0.04868
1535.4,0.04871
1535.9,0.04871
1536.3,0.04869
1536.8,0.04869
1537.3,0.04871
1537.7,0.04871
1538.2,0.04873
1538.6,0.04875
1539.1,0.0487
1539.6,0.04867
1540.0,0.04868
1540.5,0.04869
1540.9,0.04871
1541.4,0.04873
1541.8,0.04873
1542.3,0.04871
1542.8,0.04867
1543.2,0.04867
1543.7,0.0487
1544.1,0.0487
1544.6,0.04872
1545.1,0.0487
1545.5,0.04867
1546.0,0.04869
1546.4,0.04871
1546.9,0.04872
1547.4,0.0487
1547.8,0.04869
1548.3,0.0487
1548.8,0.04872
1549.2,0.0487
1549.7,0.04869
1550.1,0.0487
1550.6,0.04872
1551.1,0.04871
1551.5,0.04871
1552.0,0.04874
1552.4,0.04876
1552.9,0.04875
1553.4,0.04871
1553.8,0.04869
1554.3,0.04872
1554.8,0.04874
1555.3,0.04873
1555.7,0.0487
1556.2,0.04865
1556.7,0.04865
1557.1,0.04869
1557.6,0.04872
1558.1,0.0487
1558.5,0.04869
1559.0,0.04871
1559.5,0.04873
1559.9,0.04871
1560.4,0.04868
1560.9,0.04866
1561.3,0.04868
1561.8,0.04871
1562.3,0.04873
1562.8,0.04873
1563.2,0.04871
1563.7,0.04872
1564.2,0.04871
1564.6,0.04872
1565.1,0.04872
1565.6,0.04874
1566.1,0.04874
1566.5,0.04874
1567.0,0.04872
1567.5,0.04871
1567.9,0.0487
1568.4,0.04873
1568.9,0.04874
1569.4,0.04872
1569.8,0.04875
1570.3,0.04877
1570.8,0.04877
1571.3,0.04876
1571.8,0.04874
1572.2,0.04876
1572.7,0.04876
1573.2,0.04873
1573.7,0.04872
1574.1,0.04874
1574.6,0.04874
1575.1,0.04874
1575.6,0.04875
1576.1,0.04873
1576.5,0.04871
1577.0,0.04872
1577.5,0.04874
1578.0,0.04877
1578.4,0.04879
1578.9,0.04877
1579.4,0.04877
1579.9,0.04875
1580.4,0.04873
1580.9,0.04874
1581.3,0.04876
1581.8,0.04875
1582.3,0.04874
1582.8,0.04874
1583.3,0.04875
1583.8,0.04875
1584.2,0.04873
1584.7,0.04875
1585.2,0.04875
1585.7,0.04875
1586.2,0.04875
1586.7,0.04875
1587.2,0.04874
1587.6,0.04876
1588.1,0.04875
1588.6,0.04873
1589.1,0.04876
1589.6,0.0488
1590.1,0.04879
1590.6,0.04877
1591.0,0.04874
1591.5,0.04873
1592.0,0.04875
1592.5,0.04875
1593.0,0.04877
1593.5,0.04877
1594.0,0.04873
1594.5,0.04871
1595.0,0.04871
1595.4,0.04875
1595.9,0.0488
1596.4,0.0488
1596.9,0.04878
1597.4,0.04877
1597.9,0.04876
1598.4,0.04873
1598.9,0.04872
1599.4,0.04875
1599.9,0.04878
1600.4,0.04878
1600.9,0.04876
1601.4,0.04876
1601.9,0.04877
1602.3,0.04879
1602.8,0.0488
1603.3,0.04878
1603.8,0.04876
1604.3,0.04876
1604.8,0.04879
1605.3,0.04881
1605.8,0.04879
1606.3,0.04875
1606.8,0.04876
1607.3,0.04878
1607.8,0.04878
1608.3,0.04877
1608.8,0.04874
1609.3,0.04875
1609.8,0.04877
1610.3,0.04877
1610.8,0.04878
1611.3,0.04877
1611.8,0.04877
1612.3,0.0488
1612.8,0.0488
1613.3,0.04878
1613.8,0.04879
1614.3,0.04879
1614.8,0.04878
1615.3,0.04877
1615.8,0.04878
1616.3,0.0488
1616.8,0.04879
1617.3,0.04879
1617.8,0.04876
1618.4,0.04875
1618.9,0.04878
1619.4,0.04877
1619.9,0.0488
1620.4,0.04881
1620.9,0.04878
1621.4,0.04879
1621.9,0.04881
1622.4,0.0488
1622.9,0.04879
1623.4,0.0488
1623.9,0.0488
1624.4,0.04883
1624.9,0.04883
1625.5,0.04883
1626.0,0.04883
1626.5,0.0488
1627.0,0.0488
1627.5,0.04881
1628.0,0.04879
1628.5,0.04879
1629.0,0.0488
1629.6,0.0488
1630.1,0.04881
1630.6,0.04882
1631.1,0.0488
1631.6,0.0488
1632.1,0.04881
1632.6,0.04881
1633.1,0.0488
1633.7,0.04878
1634.2,0.0488
1634.7,0.04879
1635.2,0.04881
1635.7,0.04883
1636.2,0.04881
1636.8,0.04881
1637.3,0.04881
1637.8,0.0488
1638.3,0.0488
1638.8,0.04878
1639.3,0.04876
1639.8,0.04878
1640.4,0.0488
1640.9,0.0488
1641.4,0.04882
1641.9,0.04883
1642.4,0.04881
1643.0,0.04882
1643.5,0.04881
1644.0,0.04877
1644.5,0.04878
1645.1,0.04879
1645.6,0.04882
1646.1,0.04882
1646.6,0.04881
1647.2,0.0488
1647.7,0.04879
1648.2,0.0488
1648.7,0.04883
1649.2,0.04882
1649.8,0.04881
1650.3,0.04881
1650.8,0.0488
1651.3,0.04883
1651.9,0.04885
1652.4,0.04884
1652.9,0.04881
1653.4,0.0488
1654.0,0.0488
1654.5,0.04885
1655.0,0.04888
1655.6,0.04888
1656.1,0.04886
1656.6,0.04884
1657.2,0.04883
1657.7,0.04882
1658.2,0.04882
1658.7,0.04884
1659.3,0.04882
1659.8,0.0488
1660.3,0.04882
1660.9,0.04882
1661.4,0.04882
1661.9,0.04883
1662.5,0.04885
1663.0,0.04882
1663.5,0.04879
1664.1,0.04881
1664.6,0.04882
1665.1,0.04882
1665.7,0.04881
1666.2,0.04884
1666.7,0.04883
1667.3,0.0488
1667.8,0.04879
1668.3,0.04878
1668.9,0.04881
1669.4,0.04886
1670.0,0.04888
1670.5,0.04885
1671.0,0.04886
1671.6,0.04889
1672.1,0.04888
1672.7,0.04885
1673.2,0.04882
1673.7,0.04882
1674.3,0.04885
1674.8,0.04882
1675.4,0.04882
1675.9,0.04885
1676.4,0.04885
1677.0,0.04884
1677.5,0.04884
1678.1,0.04883
1678.6,0.04883
1679.2,0.04882
1679.7,0.04883
1680.2,0.04883
1680.8,0.04884
1681.3,0.04885
1681.9,0.04883
1682.4,0.04883
1683.0,0.04884
1683.5,0.04885
1684.1,0.04886
1684.6,0.04885
1685.2,0.04885
1685.7,0.04887
1686.3,0.04885
1686.8,0.04884
1687.3,0.04885
1687.9,0.04886
1688.4,0.04887
1689.0,0.04886
1689.6,0.04886
1690.1,0.04885
1690.7,0.04882
1691.2,0.04879
1691.8,0.04881
1692.3,0.04884
1692.9,0.04885
1693.4,0.04883
1694.0,0.04881
1694.5,0.04883
1695.1,0.04886
1695.6,0.04889
1696.2,0.04888
1696.7,0.04887
1697.3,0.04887
1697.8,0.04887
1698.4,0.04887
1699.0,0.04884
1699.5,0.04884
1700.1,0.04886
1700.6,0.04885
1701.2,0.04884
1701.8,0.04885
1702.3,0.04887
1702.9,0.04886
1703.4,0.04885
1704.0,0.04882
1704.6,0.04883
1705.1,0.04885
1705.7,0.04886
1706.2,0.04884
1706.8,0.04885
1707.4,0.04888
1707.9,0.04888
1708.5,0.04888
1709.0,0.04886
1709.6,0.04886
1710.2,0.04886
1710.7,0.04885
1711.3,0.04883
1711.9,0.04882
1712.4,0.04884
1713.0,0.04884
1713.6,0.04884
1714.1,0.04885
1714.7,0.04886
1715.3,0.04886
1715.8,0.04886
1716.4,0.04886
1717.0,0.04884
1717.5,0.04882
1718.1,0.04881
1718.7,0.04884
1719.2,0.04887
1719.8,0.04887
1720.4,0.04885
1721.0,0.04884
1721.5,0.04883
1722.1,0.04884
1722.7,0.04886
1723.2,0.04886
1723.8,0.04886
1724.4,0.04887
1725.0,0.04884
1725.5,0.04884
1726.1,0.04887
1726.7,0.04888
1727.3,0.04887
1727.8,0.04888
1728.4,0.04887
1729.0,0.04886
1729.6,0.04886
1730.1,0.04885
1730.7,0.04885
1731.3,0.04887
1731.9,0.04888
1732.5,0.04888
1733.0,0.04887
1733.6,0.04886
1734.2,0.04885
1734.8,0.04885
1735.4,0.04886
1735.9,0.04886
1736.5,0.04883
1737.1,0.04885
1737.7,0.04886
1738.3,0.04887
1738.8,0.04888
1739.4,0.04889
1740.0,0.04888
1740.6,0.04883
1741.2,0.04881
1741.8,0.04882
1742.3,0.04882
1742.9,0.04885
1743.5,0.04886
1744.1,0.04882
1744.7,0.04884
1745.3,0.04888
1745.9,0.04887
1746.5,0.04887
1747.1,0.0489
1747.6,0.0489
1748.2,0.04887
1748.8,0.04885
1749.4,0.04887
1750.0,0.0489
1750.6,0.04885
1751.2,0.04884
1751.8,0.04886
1752.4,0.04888
1753.0,0.0489
1753.6,0.04891
1754.1,0.0489
1754.7,0.0489
1755.3,0.04889
1755.9,0.04888
1756.5,0.04886
1757.1,0.04885
1757.7,0.04887
1758.3,0.0489
1758.9,0.04889
1759.5,0.04888
1760.1,0.04888
1760.7,0.0489
1761.3,0.04889
1761.9,0.04888
1762.5,0.04889
1763.1,0.04887
1763.7,0.04884
1764.3,0.04884
1764.9,0.04884
1765.5,0.04888
1766.1,0.0489
1766.7,0.04886
1767.3,0.04886
1767.9,0.04889
1768.5,0.04889
1769.1,0.04889
1769.7,0.04891
1770.3,0.04891
1770.9,0.04888
1771.5,0.04886
1772.1,0.04887
1772.7,0.04889
1773.3,0.04887
1773.9,0.04886
1774.6,0.04888
1775.2,0.0489
1775.8,0.04889
1776.4,0.04889
1777.0,0.04889
1777.6,0.04886
1778.2,0.04885
1778.8,0.04889
1779.4,0.0489
1780.0,0.0489
1780.7,0.0489
1781.3,0.04886
1781.9,0.04886
1782.5,0.04889
1783.1,0.0489
1783.7,0.0489
1784.3,0.04889
1784.9,0.04887
1785.6,0.04888
1786.2,0.0489
1786.8,0.04891
1787.4,0.0489
1788.0,0.04891
1788.6,0.04892
1789.3,0.0489
1789.9,0.04887
1790.5,0.04888
1791.1,0.04891
1791.7,0.04891
1792.3,0.0489
1793.0,0.04891
1793.6,0.04892
1794.2,0.04892
1794.8,0.04891
1795.4,0.04889
1796.1,0.04888
1796.7,0.04889
1797.3,0.0489
1797.9,0.04891
1798.6,0.04891
1799.2,0.0489
1799.8,0.0489
1800.4,0.0489
1801.1,0.04891
1801.7,0.04892
1802.3,0.0489
1802.9,0.04887
1803.6,0.04885
1804.2,0.04886
1804.8,0.04889
1805.4,0.0489
1806.1,0.04888
1806.7,0.04887
1807.3,0.04887
1808.0,0.04889
1808.6,0.0489
1809.2,0.0489
1809.9,0.04889
1810.5,0.04888
1811.1,0.04889
1811.8,0.04893
1812.4,0.04893
1813.0,0.04891
1813.7,0.0489
1814.3,0.04888
1814.9,0.04887
1815.6,0.04888
1816.2,0.0489
1816.8,0.04889
1817.5,0.04888
1818.1,0.04889
1818.8,0.04889
1819.4,0.0489
1820.0,0.04893
1820.7,0.04891
1821.3,0.04891
1821.9,0.0489
1822.6,0.04892
1823.2,0.04898
1823.9,0.04896
1824.5,0.04893
1825.2,0.04892
1825.8,0.04891
1826.4,0.0489
1827.1,0.0489
1827.7,0.04888
1828.4,0.04889
1829.0,0.04891
1829.7,0.04891
1830.3,0.04889
1831.0,0.04889
1831.6,0.0489
1832.3,0.04891
1832.9,0.04892
1833.6,0.04891
1834.2,0.0489
1834.8,0.04891
1835.5,0.04892
1836.1,0.04892
1836.8,0.04891
1837.4,0.04891
1838.1,0.04892
1838.8,0.04891
1839.4,0.04891
1840.1,0.04893
1840.7,0.04892
1841.4,0.04891
1842.0,0.0489
1842.7,0.04889
1843.3,0.04891
1844.0,0.04893
1844.6,0.04892
