Database of Origin,University of Winnipeg Spectrophotometer Facility
Sample Description,Carbonaceous chondrites - RELAB archive 8. Lab-heated carbonaceous chondrites
Other Information,Ivuna unheated lamp60
Date Added,2018-07-23 23:45:04.364513

Data ID,RLA_MET_40_1        
Sample ID,Ivuna
Mineral Name,Ivuna
Viewing Geometry,30/0/ 30
Resolution,5/ 0.6-129 nm
Material Class,CI1

Wavelength
305.0,0.019182
310.0,0.02142
315.0,0.021955
320.0,0.02234
325.0,0.02269
330.0,0.023382
335.0,0.023655
340.0,0.024877
345.0,0.025085
350.0,0.025535
355.0,0.026864
360.0,0.027427
365.0,0.028377
370.0,0.029342
375.0,0.030297
380.0,0.031434
385.0,0.032192
390.0,0.032899
395.0,0.034094
400.0,0.034806
405.0,0.035409
410.0,0.036103
415.0,0.036695
420.0,0.037237
425.0,0.037863
430.0,0.039209
435.0,0.039825
440.0,0.040172
445.0,0.040753
450.0,0.041284
455.0,0.041789
460.0,0.042338
465.0,0.042436
470.0,0.042304
475.0,0.042945
480.0,0.043858
485.0,0.044283
490.0,0.045077
495.0,0.045729
500.0,0.04528
505.0,0.045907
510.0,0.046596
515.0,0.04743
520.0,0.047493
525.0,0.047954
530.0,0.048751
535.0,0.049233
540.0,0.04934
545.0,0.049614
550.0,0.049433
555.0,0.049618
560.0,0.050144
565.0,0.050698
570.0,0.050832
575.0,0.050071
580.0,0.050174
585.0,0.050067
590.0,0.049963
595.0,0.05016
600.0,0.05028
605.0,0.050525
610.0,0.050372
615.0,0.05052
620.0,0.050677
625.0,0.050782
630.0,0.05077
635.0,0.050763
640.0,0.050672
645.0,0.050896
650.0,0.050882
655.0,0.050835
660.0,0.050674
665.0,0.050831
670.0,0.050749
675.0,0.050915
680.0,0.051302
685.0,0.051534
690.0,0.051319
695.0,0.051344
700.0,0.051434
705.0,0.051697
710.0,0.051767
715.0,0.051978
720.0,0.051934
725.0,0.052115
730.0,0.052226
735.0,0.052133
740.0,0.05245
745.0,0.052368
750.0,0.052456
755.0,0.052442
760.0,0.05272
765.0,0.052712
770.0,0.052695
775.0,0.052963
780.0,0.052865
785.0,0.052894
790.0,0.052891
795.0,0.053033
800.0,0.053065
805.0,0.053068
810.0,0.052955
815.0,0.053258
820.0,0.053075
825.0,0.053332
830.0,0.05349
835.0,0.053378
840.0,0.053408
845.0,0.053289
850.0,0.053258
855.0,0.053686
860.0,0.052942
865.0,0.053304
870.0,0.053145
875.0,0.053099
880.0,0.053087
885.0,0.053318
890.0,0.05327
895.0,0.053279
900.0,0.053191
905.0,0.053169
910.0,0.053236
915.0,0.053203
920.0,0.053163
925.0,0.053116
930.0,0.053243
935.0,0.05327
940.0,0.053238
945.0,0.053229
950.0,0.053393
955.0,0.053729
960.0,0.053116
965.0,0.053164
970.0,0.053246
975.0,0.053399
980.0,0.05331
985.0,0.053584
990.0,0.053607
995.0,0.053817
1000.0,0.053591
1005.0,0.053863
1010.0,0.054036
1015.0,0.053941
1020.0,0.054205
1025.0,0.054215
1030.0,0.054284
1035.0,0.054272
1040.0,0.054483
1045.0,0.05462
1050.0,0.054764
1055.0,0.054921
1060.0,0.054847
1065.0,0.054796
1070.0,0.055059
1075.0,0.054862
1080.0,0.054935
1085.0,0.055062
1090.0,0.055105
1095.0,0.055015
1100.0,0.055275
1105.0,0.055383
1110.0,0.055361
1115.0,0.055428
1120.0,0.055602
1125.0,0.055647
1130.0,0.055625
1135.0,0.055684
1140.0,0.055849
1145.0,0.055772
1150.0,0.055984
1155.0,0.056226
1160.0,0.056296
1165.0,0.056227
1170.0,0.056317
1175.0,0.056518
1180.0,0.056777
1185.0,0.056622
1190.0,0.056771
1195.0,0.057038
1200.0,0.05695
1205.0,0.057055
1210.0,0.057338
1215.0,0.057251
1220.0,0.057617
1225.0,0.057449
1230.0,0.057852
1235.0,0.057768
1240.0,0.057789
1245.0,0.057955
1250.0,0.057877
1255.0,0.058207
1260.0,0.058229
1265.0,0.058634
1270.0,0.058516
1275.0,0.058737
1280.0,0.058853
1285.0,0.058948
1290.0,0.058974
1295.0,0.059202
1300.0,0.059195
1305.0,0.059319
1310.0,0.059405
1315.0,0.059496
1320.0,0.059632
1325.0,0.059846
1330.0,0.059787
1335.0,0.060011
1340.0,0.059851
1345.0,0.059898
1350.0,0.0599
1355.0,0.059954
1360.0,0.060079
1365.0,0.060261
1370.0,0.060405
1375.0,0.06038
1380.0,0.060396
1385.0,0.060791
1390.0,0.060908
1395.0,0.06078
1400.0,0.060701
1405.0,0.061016
1410.0,0.061186
1415.0,0.061084
1420.0,0.061466
1425.0,0.06134
1430.0,0.061642
1435.0,0.061437
1440.0,0.061771
1445.0,0.061933
1450.0,0.061834
1455.0,0.062044
1460.0,0.061921
1465.0,0.062111
1470.0,0.062349
1475.0,0.062578
1480.0,0.06257
1485.0,0.06272
1490.0,0.06293
1495.0,0.062633
1500.0,0.062967
1505.0,0.063011
1510.0,0.062943
1515.0,0.063023
1520.0,0.063216
1525.0,0.063275
1530.0,0.063489
1535.0,0.063494
1540.0,0.063349
1545.0,0.063358
1550.0,0.063657
1555.0,0.063936
1560.0,0.063785
1565.0,0.063875
1570.0,0.063891
1575.0,0.063835
1580.0,0.063765
1585.0,0.063632
1590.0,0.064009
1595.0,0.064105
1600.0,0.064354
1605.0,0.064069
1610.0,0.064388
1615.0,0.064407
1620.0,0.064341
1625.0,0.064442
1630.0,0.064361
1635.0,0.064389
1640.0,0.064435
1645.0,0.064681
1650.0,0.064429
1655.0,0.06437
1660.0,0.064967
1665.0,0.064856
1670.0,0.064714
1675.0,0.064794
1680.0,0.064974
1685.0,0.0649
1690.0,0.06477
1695.0,0.065012
1700.0,0.064797
1705.0,0.065225
1710.0,0.065337
1715.0,0.065426
1720.0,0.065346
1725.0,0.065586
1730.0,0.065374
1735.0,0.065398
1740.0,0.065489
1745.0,0.065394
1750.0,0.065556
1755.0,0.065646
1760.0,0.065887
1765.0,0.065924
1770.0,0.066025
1775.0,0.065951
1780.0,0.065967
1785.0,0.065881
1790.0,0.066075
1795.0,0.066111
1800.0,0.065818
1805.0,0.066054
1810.0,0.065975
1815.0,0.066119
1820.0,0.066077
1825.0,0.066076
1830.0,0.066143
1835.0,0.066007
1840.0,0.066146
1845.0,0.066273
1850.0,0.066249
1855.0,0.066434
1860.0,0.066403
1865.0,0.06653
1870.0,0.065839
1875.0,0.066914
1880.0,0.06709
1885.0,0.066538
1890.0,0.066459
1895.0,0.066679
1900.0,0.066078
1905.0,0.066415
1910.0,0.066707
1915.0,0.066427
1920.0,0.066356
1925.0,0.066556
1930.0,0.066482
1935.0,0.066371
1940.0,0.066377
1945.0,0.066436
1950.0,0.066457
1955.0,0.066297
1960.0,0.066496
1965.0,0.06649
1970.0,0.066495
1975.0,0.066558
1980.0,0.066591
1985.0,0.066665
1990.0,0.066684
1995.0,0.066821
2000.0,0.066868
2005.0,0.066911
2010.0,0.066983
2015.0,0.066889
2020.0,0.06687
2025.0,0.067111
2030.0,0.066965
2035.0,0.067145
2040.0,0.067145
2045.0,0.067188
2050.0,0.067211
2055.0,0.067005
2060.0,0.067095
2065.0,0.067022
2070.0,0.067129
2075.0,0.067182
2080.0,0.067268
2085.0,0.067343
2090.0,0.0674
2095.0,0.067343
2100.0,0.067398
2105.0,0.067532
2110.0,0.067528
2115.0,0.067309
2120.0,0.06746
2125.0,0.067547
2130.0,0.067496
2135.0,0.06748
2140.0,0.067424
2145.0,0.067401
2150.0,0.067413
2155.0,0.067463
2160.0,0.067646
2165.0,0.06752
2170.0,0.067373
2175.0,0.067573
2180.0,0.067548
2185.0,0.067467
2190.0,0.067593
2195.0,0.067459
2200.0,0.067407
2205.0,0.067527
2210.0,0.067751
2215.0,0.067638
2220.0,0.067526
2225.0,0.067862
2230.0,0.067875
2235.0,0.067676
2240.0,0.06785
2245.0,0.067994
2250.0,0.067916
2255.0,0.068063
2260.0,0.067964
2265.0,0.067889
2270.0,0.067763
2275.0,0.067936
2280.0,0.067815
2285.0,0.067623
2290.0,0.067577
2295.0,0.067427
2300.0,0.068017
2305.0,0.067862
2310.0,0.067888
2315.0,0.067955
2320.0,0.06785
2325.0,0.067922
2330.0,0.067989
2335.0,0.06788
2340.0,0.067753
2345.0,0.067817
2350.0,0.067741
2355.0,0.067582
2360.0,0.06736
2365.0,0.067385
2370.0,0.067436
2375.0,0.067402
2380.0,0.067486
2385.0,0.06733
2390.0,0.067788
2395.0,0.067643
2400.0,0.06768
2405.0,0.067668
2410.0,0.067691
2415.0,0.067802
2420.0,0.067942
2425.0,0.068105
2430.0,0.067812
2435.0,0.0678
2440.0,0.068037
2445.0,0.067622
2450.0,0.067637
2455.0,0.067672
2460.0,0.067615
2465.0,0.067565
2470.0,0.067362
2475.0,0.067698
2480.0,0.067459
2485.0,0.067503
2490.0,0.067446
2495.0,0.06713
2500.0,0.067264
2502.0,0.0674
2503.2,0.067303
2504.41,0.06723
2505.62,0.067117
2506.83,0.066951
2508.05,0.066978
2509.26,0.066911
2510.48,0.067114
2511.69,0.067312
2512.91,0.06714
2514.13,0.066938
2515.35,0.06699
2516.57,0.067233
2517.79,0.067105
2519.02,0.066832
2520.24,0.066845
2521.47,0.067146
2522.69,0.067245
2523.92,0.067293
2525.15,0.067165
2526.38,0.067142
2527.61,0.067092
2528.85,0.066991
2530.08,0.066841
2531.32,0.066797
2532.55,0.066691
2533.79,0.066897
2535.03,0.067247
2536.27,0.067025
2537.51,0.066813
2538.75,0.066808
2540.0,0.066665
2541.24,0.066823
2542.49,0.066905
2543.74,0.066748
2544.99,0.066743
2546.24,0.067158
2547.49,0.067316
2548.74,0.066926
2549.99,0.066704
2551.25,0.066722
2552.5,0.0671
2553.76,0.067353
2555.02,0.067237
2556.28,0.067014
2557.54,0.066841
2558.8,0.066892
2560.07,0.067108
2561.33,0.066984
2562.6,0.066831
2563.86,0.066673
2565.13,0.066748
2566.4,0.066932
2567.67,0.067089
2568.95,0.066853
2570.22,0.066936
2571.5,0.067066
2572.77,0.066798
2574.05,0.066542
2575.33,0.066615
2576.61,0.06693
2577.89,0.06711
2579.17,0.066911
2580.46,0.066957
2581.74,0.066911
2583.03,0.066716
2584.31,0.066814
2585.6,0.066955
2586.89,0.066933
2588.19,0.067193
2589.48,0.067081
2590.77,0.06699
2592.07,0.067121
2593.36,0.067013
2594.66,0.066739
2595.96,0.066855
2597.26,0.067232
2598.56,0.067261
2599.87,0.067218
2601.17,0.067065
2602.48,0.067038
2603.78,0.067209
2605.09,0.067324
2606.4,0.067169
2607.71,0.067039
2609.03,0.066944
2610.34,0.066722
2611.66,0.06709
2612.97,0.067401
2614.29,0.0673
2615.61,0.067027
2616.93,0.066745
2618.25,0.067143
2619.57,0.067325
2620.9,0.06705
2622.22,0.067048
2623.55,0.067129
2624.88,0.067184
2626.21,0.06699
2627.54,0.066979
2628.87,0.067044
2630.21,0.066758
2631.54,0.066621
2632.88,0.066981
2634.21,0.0671
2635.55,0.067195
2636.89,0.067245
2638.24,0.067015
2639.58,0.067079
2640.92,0.067117
2642.27,0.067128
2643.62,0.067191
2644.97,0.067137
2646.32,0.067044
2647.67,0.06701
2649.02,0.067004
2650.38,0.06721
2651.73,0.067347
2653.09,0.067237
2654.45,0.067154
2655.81,0.067155
2657.17,0.067071
2658.53,0.067144
2659.89,0.067617
2661.26,0.067652
2662.63,0.067402
2664.0,0.067328
2665.36,0.067188
2666.74,0.066871
2668.11,0.066892
2669.48,0.0669
2670.86,0.066714
2672.23,0.066885
2673.61,0.066865
2674.99,0.066706
2676.37,0.066499
2677.76,0.066497
2679.14,0.066627
2680.52,0.066867
2681.91,0.066802
2683.3,0.066483
2684.69,0.066172
2686.08,0.065959
2687.47,0.065957
2688.87,0.065831
2690.26,0.065485
2691.66,0.065358
2693.06,0.065172
2694.46,0.064757
2695.86,0.064488
2697.26,0.064192
2698.66,0.063784
2700.07,0.062875
2701.48,0.06206
2702.89,0.061496
2704.3,0.060679
2705.71,0.059838
2707.12,0.05924
2708.53,0.058665
2709.95,0.057853
2711.37,0.056984
2712.79,0.056166
2714.21,0.055424
2715.63,0.054761
2717.05,0.054163
2718.48,0.053563
2719.9,0.053191
2721.33,0.052795
2722.76,0.052386
2724.19,0.052161
2725.62,0.05184
2727.06,0.051632
2728.49,0.051259
2729.93,0.050745
2731.37,0.050336
2732.81,0.050217
2734.25,0.050097
2735.69,0.049651
2737.14,0.049173
2738.58,0.048761
2740.03,0.048356
2741.48,0.047932
2742.93,0.047774
2744.38,0.047506
2745.83,0.046991
2747.29,0.046753
2748.75,0.0466
2750.2,0.046319
2751.66,0.045869
2753.13,0.045408
2754.59,0.044913
2756.05,0.044546
2757.52,0.044338
2758.99,0.044039
2760.46,0.043603
2761.93,0.043185
2763.4,0.042755
2764.87,0.042502
2766.35,0.042425
2767.82,0.042045
2769.3,0.041741
2770.78,0.041523
2772.26,0.041232
2773.75,0.040934
2775.23,0.040821
2776.72,0.040667
2778.21,0.040525
2779.7,0.040431
2781.19,0.040226
2782.68,0.039934
2784.18,0.03987
2785.67,0.039771
2787.17,0.039478
2788.67,0.039539
2790.17,0.039437
2791.67,0.039191
2793.18,0.03921
2794.68,0.039147
2796.19,0.039141
2797.7,0.03906
2799.21,0.038839
2800.72,0.038635
2802.24,0.038566
2803.75,0.038674
2805.27,0.038615
2806.79,0.038517
2808.31,0.038568
2809.83,0.038429
2811.35,0.038233
2812.88,0.038489
2814.41,0.038581
2815.93,0.038359
2817.46,0.038275
2819.0,0.038468
2820.53,0.03862
2822.07,0.038775
2823.6,0.038821
2825.14,0.038978
2826.68,0.038886
2828.22,0.038615
2829.77,0.038544
2831.31,0.038587
2832.86,0.038782
2834.41,0.03884
2835.96,0.038896
2837.51,0.039123
2839.07,0.039375
2840.62,0.039464
2842.18,0.039446
2843.74,0.039557
2845.3,0.039613
2846.86,0.039586
2848.43,0.039592
2849.99,0.039628
2851.56,0.039616
2853.13,0.039797
2854.7,0.039779
2856.27,0.039847
2857.85,0.040053
2859.42,0.04009
2861.0,0.040231
2862.58,0.040415
2864.16,0.04063
2865.75,0.040849
2867.33,0.040767
2868.92,0.040547
2870.51,0.040493
2872.1,0.040504
2873.69,0.040502
2875.28,0.040843
2876.88,0.041068
2878.48,0.041073
2880.07,0.041168
2881.68,0.04131
2883.28,0.04143
2884.88,0.041346
2886.49,0.041264
2888.1,0.041317
2889.71,0.041188
2891.32,0.04135
2892.93,0.041555
2894.55,0.04163
2896.16,0.041669
2897.78,0.041665
2899.4,0.04173
2901.03,0.041786
2902.65,0.041682
2904.28,0.041781
2905.91,0.041788
2907.54,0.041791
2909.17,0.04177
2910.8,0.041904
2912.44,0.042023
2914.07,0.042037
2915.71,0.042032
2917.35,0.04188
2918.99,0.041874
2920.64,0.042217
2922.29,0.042284
2923.93,0.042045
2925.58,0.041946
2927.24,0.042062
2928.89,0.042271
2930.55,0.042268
2932.2,0.042122
2933.86,0.042162
2935.52,0.042395
2937.19,0.042358
2938.85,0.042238
2940.52,0.042416
2942.19,0.042452
2943.86,0.042344
2945.53,0.042313
2947.21,0.042484
2948.88,0.042566
2950.56,0.04262
2952.24,0.042816
2953.92,0.042944
2955.61,0.042826
2957.29,0.0429
2958.98,0.042923
2960.67,0.042797
2962.36,0.042853
2964.06,0.042812
2965.75,0.042941
2967.45,0.043123
2969.15,0.043144
2970.85,0.043191
2972.55,0.043295
2974.26,0.043331
2975.97,0.043413
2977.68,0.043478
2979.39,0.043488
2981.1,0.043593
2982.82,0.043705
2984.53,0.043707
2986.25,0.043781
2987.97,0.043916
2989.7,0.043774
2991.42,0.043811
2993.15,0.043982
2994.88,0.044019
2996.61,0.044189
2998.34,0.044255
3000.08,0.044212
3001.82,0.044224
3003.55,0.044244
3005.3,0.044415
3007.04,0.04456
3008.78,0.044704
3010.53,0.044877
3012.28,0.044821
3014.03,0.044838
3015.79,0.044998
3017.54,0.044959
3019.3,0.044932
3021.06,0.045064
3022.82,0.045233
3024.58,0.045183
3026.35,0.045016
3028.12,0.045097
3029.89,0.04538
3031.66,0.045571
3033.43,0.045553
3035.21,0.045652
3036.99,0.045676
3038.77,0.045766
3040.55,0.045933
3042.33,0.046022
3044.12,0.046143
3045.91,0.046116
3047.7,0.046118
3049.49,0.04616
3051.29,0.046206
3053.08,0.04644
3054.88,0.046631
3056.68,0.046715
3058.49,0.046675
3060.29,0.046592
3062.1,0.046665
3063.91,0.046835
3065.72,0.046981
3067.54,0.047085
3069.35,0.047045
3071.17,0.047165
3072.99,0.047307
3074.81,0.047351
3076.64,0.047362
3078.47,0.047416
3080.29,0.047481
3082.13,0.047621
3083.96,0.047817
3085.79,0.047945
3087.63,0.047787
3089.47,0.047766
3091.31,0.048106
3093.16,0.048224
3095.01,0.048165
3096.85,0.048194
3098.71,0.048416
3100.56,0.048561
3102.41,0.048502
3104.27,0.048579
3106.13,0.048869
3107.99,0.04901
3109.86,0.049105
3111.73,0.049275
3113.59,0.049352
3115.47,0.049393
3117.34,0.049605
3119.21,0.049702
3121.09,0.049619
3122.97,0.049778
3124.86,0.050072
3126.74,0.050166
3128.63,0.050047
3130.52,0.050071
3132.41,0.050082
3134.3,0.050097
3136.2,0.050049
3138.1,0.050221
3140.0,0.050517
3141.9,0.050623
3143.81,0.05077
3145.71,0.050819
3147.62,0.050806
3149.54,0.050874
3151.45,0.051037
3153.37,0.051283
3155.29,0.051406
3157.21,0.051401
3159.13,0.051465
3161.06,0.051567
3162.99,0.05177
3164.92,0.051846
3166.85,0.051851
3168.79,0.051967
3170.72,0.052131
3172.67,0.052281
3174.61,0.052305
3176.55,0.052267
3178.5,0.05237
3180.45,0.05244
3182.4,0.05258
3184.36,0.052752
3186.32,0.052809
3188.27,0.052845
3190.24,0.052958
3192.2,0.052917
3194.17,0.053065
3196.14,0.053274
3198.11,0.053344
3200.08,0.053449
3202.06,0.053667
3204.04,0.053757
3206.02,0.053902
3208.0,0.054063
3209.99,0.053978
3211.98,0.053877
3213.97,0.053926
3215.96,0.054062
3217.96,0.054181
3219.96,0.05432
3221.96,0.054494
3223.96,0.054634
3225.97,0.054823
3227.98,0.054921
3229.99,0.054756
3232.0,0.054815
3234.02,0.055029
3236.04,0.05507
3238.06,0.055134
3240.08,0.055226
3242.11,0.055246
3244.14,0.055402
3246.17,0.055455
3248.2,0.055404
3250.24,0.05546
3252.28,0.055666
3254.32,0.055755
3256.37,0.055721
3258.41,0.055905
3260.46,0.055989
3262.51,0.055997
3264.57,0.056184
3266.63,0.056378
3268.69,0.05635
3270.75,0.056291
3272.81,0.056365
3274.88,0.056516
3276.95,0.056635
3279.02,0.056644
3281.1,0.056641
3283.18,0.056872
3285.26,0.057054
3287.34,0.057058
3289.43,0.057079
3291.51,0.057159
3293.61,0.057152
3295.7,0.057199
3297.8,0.05736
3299.9,0.057487
3302.0,0.057537
3304.1,0.057518
3306.21,0.057473
3308.32,0.057646
3310.43,0.057742
3312.55,0.05767
3314.66,0.057783
3316.79,0.057954
3318.91,0.057847
3321.03,0.057797
3323.16,0.05787
3325.29,0.057961
3327.43,0.058087
3329.57,0.058166
3331.71,0.058228
3333.85,0.058245
3335.99,0.058276
3338.14,0.058346
3340.29,0.058272
3342.45,0.05834
3344.6,0.058436
3346.76,0.058444
3348.92,0.058375
3351.09,0.058363
3353.26,0.058427
3355.43,0.058406
3357.6,0.058304
3359.78,0.058226
3361.96,0.058192
3364.14,0.058169
3366.32,0.058121
3368.51,0.058152
3370.7,0.058215
3372.89,0.058254
3375.09,0.058283
3377.29,0.05829
3379.49,0.05835
3381.69,0.05856
3383.9,0.058632
3386.11,0.058706
3388.32,0.058819
3390.54,0.0589
3392.76,0.058963
3394.98,0.059007
3397.21,0.059099
3399.43,0.059153
3401.66,0.059154
3403.9,0.059128
3406.13,0.059133
3408.37,0.059229
3410.61,0.059419
3412.86,0.059543
3415.11,0.059607
3417.36,0.059609
3419.61,0.059698
3421.87,0.059742
3424.13,0.059893
3426.39,0.06012
3428.66,0.060192
3430.93,0.060321
3433.2,0.06043
3435.48,0.060392
3437.76,0.060455
3440.04,0.060474
3442.32,0.06059
3444.61,0.060762
3446.9,0.060823
3449.19,0.060893
3451.49,0.060879
3453.79,0.060882
3456.09,0.060909
3458.4,0.060985
3460.7,0.061066
3463.02,0.061122
3465.33,0.061221
3467.65,0.061289
3469.97,0.061231
3472.29,0.061275
3474.62,0.061279
3476.95,0.061179
3479.29,0.061265
3481.62,0.06141
3483.96,0.061436
3486.3,0.061483
3488.65,0.061416
3491.0,0.061591
3493.35,0.061821
3495.71,0.061842
3498.07,0.061883
3500.43,0.062011
3502.79,0.062215
3505.16,0.062474
3507.53,0.062535
3509.91,0.062545
3512.29,0.062536
3514.67,0.06258
3517.05,0.062788
3519.44,0.062872
3521.83,0.062882
3524.23,0.06299
3526.62,0.063095
3529.02,0.063163
3531.43,0.06321
3533.83,0.063292
3536.24,0.063297
3538.66,0.063292
3541.08,0.063378
3543.5,0.063455
3545.92,0.063614
3548.35,0.063775
3550.78,0.063803
3553.21,0.063786
3555.65,0.063691
3558.09,0.063655
3560.53,0.063785
3562.98,0.064012
3565.43,0.064142
3567.88,0.064217
3570.34,0.064197
3572.8,0.064177
3575.27,0.06419
3577.73,0.064192
3580.2,0.064324
3582.68,0.064528
3585.16,0.064593
3587.64,0.064637
3590.12,0.064681
3592.61,0.064811
3595.1,0.064869
3597.6,0.064839
3600.09,0.064908
3602.6,0.064927
3605.1,0.064972
3607.61,0.065208
3610.12,0.065394
3612.64,0.065476
3615.16,0.065284
3617.68,0.065223
3620.21,0.065462
3622.74,0.065558
3625.27,0.065532
3627.81,0.065669
3630.35,0.065806
3632.89,0.065785
3635.44,0.065739
3637.99,0.065802
3640.54,0.06582
3643.1,0.065894
3645.66,0.066017
3648.23,0.066094
3650.8,0.066122
3653.37,0.066201
3655.95,0.066329
3658.53,0.066357
3661.11,0.066399
3663.7,0.066428
3666.29,0.066538
3668.89,0.066649
3671.48,0.066668
3674.09,0.066718
3676.69,0.066839
3679.3,0.066965
3681.91,0.066963
3684.53,0.066956
3687.15,0.066952
3689.78,0.067068
3692.4,0.067131
3695.04,0.067151
3697.67,0.067199
3700.31,0.067273
3702.95,0.067371
3705.6,0.067497
3708.25,0.067555
3710.91,0.067603
3713.56,0.067705
3716.23,0.067769
3718.89,0.067831
3721.56,0.067824
3724.23,0.067763
3726.91,0.067827
3729.59,0.067973
3732.28,0.068134
3734.97,0.068194
3737.66,0.068188
3740.36,0.068262
3743.06,0.068292
3745.76,0.068328
3748.47,0.068467
3751.18,0.068534
3753.9,0.068596
