Database of Origin,University of Winnipeg Spectrophotometer Facility
Sample Description,Carbonaceous chondrites - RELAB archive 2. CM chondrites
Date Added,2018-07-23 23:44:50.397337

Data ID,RLA_MET_33_54       
Sample ID,Murchison
Mineral Name,CM Chondrite
Grain Size,<90 um
Viewing Geometry,30/0
Material Class,CM2.5/2.7

Wavelength
305.0,0.025398
310.0,0.023791
315.0,0.024622
320.0,0.026021
325.0,0.025252
330.0,0.026254
335.0,0.026536
340.0,0.028248
345.0,0.028466
350.0,0.028855
355.0,0.029524
360.0,0.029833
365.0,0.030613
370.0,0.03132
375.0,0.032265
380.0,0.033263
385.0,0.034082
390.0,0.034561
395.0,0.035824
400.0,0.036386
405.0,0.03663
410.0,0.037848
415.0,0.038623
420.0,0.039319
425.0,0.040074
430.0,0.040913
435.0,0.04159
440.0,0.042191
445.0,0.042705
450.0,0.043129
455.0,0.043595
460.0,0.04417
465.0,0.044557
470.0,0.045287
475.0,0.045969
480.0,0.046508
485.0,0.047013
490.0,0.047484
495.0,0.047957
500.0,0.048322
505.0,0.048851
510.0,0.049545
515.0,0.049957
520.0,0.050327
525.0,0.050736
530.0,0.050975
535.0,0.051346
540.0,0.051667
545.0,0.051875
550.0,0.052094
555.0,0.052295
560.0,0.052453
565.0,0.052533
570.0,0.052553
575.0,0.052573
580.0,0.052669
585.0,0.052679
590.0,0.05276
595.0,0.052717
600.0,0.052705
605.0,0.052623
610.0,0.052662
615.0,0.052655
620.0,0.052758
625.0,0.052679
630.0,0.052688
635.0,0.052694
640.0,0.052577
645.0,0.05252
650.0,0.052381
655.0,0.052243
660.0,0.05218
665.0,0.052123
670.0,0.052004
675.0,0.051817
680.0,0.051763
685.0,0.051773
690.0,0.051624
695.0,0.051679
700.0,0.051558
705.0,0.051559
710.0,0.051543
715.0,0.051456
720.0,0.051506
725.0,0.051506
730.0,0.051396
735.0,0.051301
740.0,0.051358
745.0,0.051359
750.0,0.051451
755.0,0.051579
760.0,0.051575
765.0,0.051712
770.0,0.051686
775.0,0.051714
780.0,0.051303
785.0,0.051479
790.0,0.052273
795.0,0.051894
800.0,0.051937
805.0,0.051931
810.0,0.05307
815.0,0.051659
820.0,0.052485
825.0,0.052732
830.0,0.052399
835.0,0.053107
840.0,0.052776
845.0,0.053631
850.0,0.052527
855.0,0.052764
860.0,0.053207
865.0,0.051793
870.0,0.051932
875.0,0.053533
880.0,0.052535
885.0,0.053375
890.0,0.052229
895.0,0.052355
900.0,0.052311
905.0,0.052376
910.0,0.052823
915.0,0.052869
920.0,0.052668
925.0,0.0524
930.0,0.052373
935.0,0.052558
940.0,0.052667
945.0,0.052872
950.0,0.053063
955.0,0.052963
960.0,0.052761
965.0,0.053337
970.0,0.053074
975.0,0.053295
980.0,0.053322
985.0,0.053617
990.0,0.053555
995.0,0.05333
1000.0,0.05298
1005.0,0.053446
1010.0,0.053235
1015.0,0.053187
1020.0,0.053492
1025.0,0.053838
1030.0,0.053665
1035.0,0.053673
1040.0,0.054179
1045.0,0.053518
1050.0,0.053628
1055.0,0.054123
1060.0,0.054108
1065.0,0.054285
1070.0,0.053967
1075.0,0.054159
1080.0,0.054096
1085.0,0.054317
1090.0,0.054192
1095.0,0.054212
1100.0,0.054473
1105.0,0.054413
1110.0,0.054435
1115.0,0.054443
1120.0,0.05455
1125.0,0.054715
1130.0,0.054707
1135.0,0.054985
1140.0,0.054814
1145.0,0.055172
1150.0,0.055041
1155.0,0.055133
1160.0,0.055181
1165.0,0.055577
1170.0,0.055534
1175.0,0.055362
1180.0,0.055557
1185.0,0.056042
1190.0,0.055986
1195.0,0.055963
1200.0,0.05634
1205.0,0.055872
1210.0,0.055967
1215.0,0.056206
1220.0,0.056207
1225.0,0.056383
1230.0,0.056529
1235.0,0.056382
1240.0,0.056538
1245.0,0.056599
1250.0,0.056589
1255.0,0.056461
1260.0,0.057397
1265.0,0.057157
1270.0,0.057268
1275.0,0.057145
1280.0,0.057753
1285.0,0.057596
1290.0,0.057786
1295.0,0.057849
1300.0,0.057794
1305.0,0.058099
1310.0,0.057823
1315.0,0.058186
1320.0,0.058394
1325.0,0.058335
1330.0,0.058427
1335.0,0.058376
1340.0,0.058502
1345.0,0.058697
1350.0,0.058506
1355.0,0.058818
1360.0,0.058693
1365.0,0.058909
1370.0,0.058827
1375.0,0.058987
1380.0,0.05895
1385.0,0.058978
1390.0,0.059357
1395.0,0.059537
1400.0,0.059127
1405.0,0.059604
1410.0,0.059737
1415.0,0.059965
1420.0,0.060055
1425.0,0.059875
1430.0,0.059915
1435.0,0.060134
1440.0,0.060009
1445.0,0.060119
1450.0,0.060009
1455.0,0.060645
1460.0,0.060227
1465.0,0.060554
1470.0,0.060804
1475.0,0.060909
1480.0,0.061298
1485.0,0.061211
1490.0,0.060697
1495.0,0.060917
1500.0,0.061169
1505.0,0.061338
1510.0,0.061172
1515.0,0.061473
1520.0,0.061649
1525.0,0.061451
1530.0,0.06134
1535.0,0.061562
1540.0,0.061437
1545.0,0.06188
1550.0,0.061366
1555.0,0.061737
1560.0,0.061872
1565.0,0.061665
1570.0,0.062044
1575.0,0.062165
1580.0,0.06236
1585.0,0.061969
1590.0,0.062543
1595.0,0.063075
1600.0,0.062028
1605.0,0.062092
1610.0,0.062603
1615.0,0.062677
1620.0,0.062553
1625.0,0.062203
1630.0,0.06228
1635.0,0.062184
1640.0,0.06279
1645.0,0.06252
1650.0,0.062746
1655.0,0.063199
1660.0,0.06294
1665.0,0.062843
1670.0,0.062585
1675.0,0.062999
1680.0,0.062998
1685.0,0.063003
1690.0,0.06263
1695.0,0.063179
1700.0,0.063045
1705.0,0.063115
1710.0,0.06301
1715.0,0.063057
1720.0,0.063238
1725.0,0.063087
1730.0,0.063051
1735.0,0.062811
1740.0,0.06344
1745.0,0.063245
1750.0,0.063018
1755.0,0.063166
1760.0,0.063409
1765.0,0.063063
1770.0,0.063164
1775.0,0.063313
1780.0,0.06359
1785.0,0.063035
1790.0,0.063378
1795.0,0.063533
1800.0,0.063628
1805.0,0.063462
1810.0,0.063522
1815.0,0.063771
1820.0,0.063239
1825.0,0.063445
1830.0,0.063611
1835.0,0.063871
1840.0,0.063797
1845.0,0.063604
1850.0,0.06413
1855.0,0.063804
1860.0,0.063711
1865.0,0.064122
1870.0,0.063543
1875.0,0.06373
1880.0,0.06312
1885.0,0.063412
1890.0,0.063442
1895.0,0.063169
1900.0,0.06362
1905.0,0.063415
1910.0,0.063277
1915.0,0.063726
1920.0,0.063174
1925.0,0.063337
1930.0,0.063427
1935.0,0.063591
1940.0,0.063384
1945.0,0.06358
1950.0,0.063583
1955.0,0.063467
1960.0,0.063293
1965.0,0.063844
1970.0,0.063427
1975.0,0.063539
1980.0,0.063612
1985.0,0.063429
1990.0,0.063434
1995.0,0.063611
2000.0,0.063739
2005.0,0.063673
2010.0,0.063659
2015.0,0.063884
2020.0,0.063769
2025.0,0.063708
2030.0,0.063928
2035.0,0.063631
2040.0,0.063689
2045.0,0.06392
2050.0,0.063893
2055.0,0.064292
2060.0,0.064061
2065.0,0.064114
2070.0,0.064096
2075.0,0.064143
2080.0,0.064491
2085.0,0.064016
2090.0,0.064181
2095.0,0.063841
2100.0,0.064292
2105.0,0.064169
2110.0,0.064201
2115.0,0.064242
2120.0,0.064478
2125.0,0.064222
2130.0,0.063991
2135.0,0.064238
2140.0,0.064049
2145.0,0.064012
2150.0,0.063956
2155.0,0.063811
2160.0,0.064099
2165.0,0.063937
2170.0,0.064122
2175.0,0.064082
2180.0,0.064063
2185.0,0.064047
2190.0,0.064351
2195.0,0.064023
2200.0,0.064214
2205.0,0.064129
2210.0,0.064086
2215.0,0.06429
2220.0,0.064431
2225.0,0.064434
2230.0,0.06415
2235.0,0.064378
2240.0,0.064576
2245.0,0.064618
2250.0,0.064193
2255.0,0.064499
2260.0,0.064229
2265.0,0.064506
2270.0,0.06435
2275.0,0.064035
2280.0,0.064432
2285.0,0.064703
2290.0,0.064473
2295.0,0.064269
2300.0,0.064434
2305.0,0.064621
2310.0,0.064717
2315.0,0.064426
2320.0,0.063947
2325.0,0.063992
2330.0,0.064357
2335.0,0.064152
2340.0,0.06428
2345.0,0.064413
2350.0,0.064387
2355.0,0.064048
2360.0,0.064518
2365.0,0.064115
2370.0,0.064112
2375.0,0.064781
2380.0,0.064083
2385.0,0.064567
2390.0,0.064343
2395.0,0.064472
2400.0,0.06441
2405.0,0.064727
2410.0,0.064435
2415.0,0.064759
2420.0,0.06429
2425.0,0.064395
2430.0,0.064513
2435.0,0.064083
2440.0,0.064211
2445.0,0.064332
2450.0,0.064506
2455.0,0.064075
2460.0,0.064073
2465.0,0.064171
2470.0,0.064446
2475.0,0.064064
2480.0,0.064392
2485.0,0.064106
2490.0,0.063805
2495.0,0.064223
2500.0,0.064349
2505.0,0.064265
2510.0,0.064243
2515.0,0.064281
2520.0,0.064736
2525.0,0.064467
2530.0,0.065083
2535.0,0.06469
2540.0,0.064458
2545.0,0.064893
2550.0,0.064602
2555.0,0.064281
2560.0,0.065506
2565.0,0.064719
2570.0,0.065495
2575.0,0.065138
2580.0,0.065454
2585.0,0.06591
2590.0,0.064567
2595.0,0.06198
2600.0,0.064968
