Database of Origin,University of Winnipeg Spectrophotometer Facility
Sample Description,Carbonaceous chondrites - RELAB archive 8. Lab-heated carbonaceous chondrites
Other Information,Heated Ivuna 700C ncmp18E
Date Added,2018-07-23 23:45:04.531912

Data ID,RLA_MET_40_6        
Sample ID,Ivuna
Mineral Name,Ivuna
Viewing Geometry,30/0/ 30
Resolution,5/ 0.6-129 nm
Material Class,CI1

Wavelength
305.0,0.043288
310.0,0.048463
315.0,0.047594
320.0,0.04861
325.0,0.049123
330.0,0.049669
335.0,0.049643
340.0,0.049664
345.0,0.049277
350.0,0.04989
355.0,0.04974
360.0,0.049766
365.0,0.049729
370.0,0.04942
375.0,0.049248
380.0,0.04925
385.0,0.049014
390.0,0.048734
395.0,0.048802
400.0,0.04892
405.0,0.049016
410.0,0.048513
415.0,0.047965
420.0,0.0479
425.0,0.04779
430.0,0.047557
435.0,0.047561
440.0,0.047334
445.0,0.047115
450.0,0.046855
455.0,0.046705
460.0,0.046401
465.0,0.046227
470.0,0.046031
475.0,0.04603
480.0,0.045791
485.0,0.045669
490.0,0.045712
495.0,0.045514
500.0,0.045308
505.0,0.045158
510.0,0.045114
515.0,0.044973
520.0,0.044822
525.0,0.044688
530.0,0.044684
535.0,0.044563
540.0,0.044558
545.0,0.044426
550.0,0.044243
555.0,0.044089
560.0,0.044053
565.0,0.043942
570.0,0.043871
575.0,0.043781
580.0,0.043673
585.0,0.043494
590.0,0.04345
595.0,0.043383
600.0,0.043248
605.0,0.043394
610.0,0.043212
615.0,0.043263
620.0,0.043278
625.0,0.043272
630.0,0.043121
635.0,0.042967
640.0,0.043239
645.0,0.043123
650.0,0.043111
655.0,0.042955
660.0,0.042909
665.0,0.042678
670.0,0.042446
675.0,0.042892
680.0,0.042845
685.0,0.042686
690.0,0.042769
695.0,0.04273
700.0,0.04251
705.0,0.042701
710.0,0.042584
715.0,0.042765
720.0,0.042654
725.0,0.042454
730.0,0.042588
735.0,0.042557
740.0,0.042468
745.0,0.042439
750.0,0.04248
755.0,0.042368
760.0,0.042241
765.0,0.042406
770.0,0.042571
775.0,0.04245
780.0,0.04232
785.0,0.042451
790.0,0.042436
795.0,0.042589
800.0,0.042562
805.0,0.042582
810.0,0.042425
815.0,0.042379
820.0,0.042088
825.0,0.042243
830.0,0.04236
835.0,0.042178
840.0,0.042188
845.0,0.042304
850.0,0.042221
855.0,0.042052
860.0,0.041953
865.0,0.041896
870.0,0.041676
875.0,0.041832
880.0,0.041801
885.0,0.041981
890.0,0.04177
895.0,0.041804
900.0,0.041827
905.0,0.04162
910.0,0.041691
915.0,0.04163
920.0,0.041492
925.0,0.041446
930.0,0.041744
935.0,0.041509
940.0,0.041704
945.0,0.041555
950.0,0.041577
955.0,0.041397
960.0,0.041482
965.0,0.041395
970.0,0.041456
975.0,0.041495
980.0,0.041443
985.0,0.041267
990.0,0.041286
995.0,0.041252
1000.0,0.041263
1005.0,0.041365
1010.0,0.04125
1015.0,0.041247
1020.0,0.041199
1025.0,0.04124
1030.0,0.041304
1035.0,0.041298
1040.0,0.041375
1045.0,0.041308
1050.0,0.041347
1055.0,0.041279
1060.0,0.04121
1065.0,0.041199
1070.0,0.041217
1075.0,0.041137
1080.0,0.041084
1085.0,0.041033
1090.0,0.041101
1095.0,0.040942
1100.0,0.040745
1105.0,0.04087
1110.0,0.040918
1115.0,0.040987
1120.0,0.041093
1125.0,0.040892
1130.0,0.040966
1135.0,0.040887
1140.0,0.041005
1145.0,0.040969
1150.0,0.041147
1155.0,0.041158
1160.0,0.041173
1165.0,0.041216
1170.0,0.041249
1175.0,0.041174
1180.0,0.041185
1185.0,0.041199
1190.0,0.041291
1195.0,0.041342
1200.0,0.04131
1205.0,0.041281
1210.0,0.041399
1215.0,0.041344
1220.0,0.041321
1225.0,0.041299
1230.0,0.041207
1235.0,0.041134
1240.0,0.041079
1245.0,0.041091
1250.0,0.041079
1255.0,0.040865
1260.0,0.040868
1265.0,0.040801
1270.0,0.040855
1275.0,0.040826
1280.0,0.040772
1285.0,0.040707
1290.0,0.040748
1295.0,0.040599
1300.0,0.040708
1305.0,0.040639
1310.0,0.040575
1315.0,0.040658
1320.0,0.0407
1325.0,0.040592
1330.0,0.040623
1335.0,0.040614
1340.0,0.040607
1345.0,0.040632
1350.0,0.040553
1355.0,0.040593
1360.0,0.040444
1365.0,0.040408
1370.0,0.040505
1375.0,0.040712
1380.0,0.040595
1385.0,0.040705
1390.0,0.040655
1395.0,0.040827
1400.0,0.040802
1405.0,0.040805
1410.0,0.040783
1415.0,0.040671
1420.0,0.040688
1425.0,0.040758
1430.0,0.040848
1435.0,0.040748
1440.0,0.040916
1445.0,0.040768
1450.0,0.040668
1455.0,0.040722
1460.0,0.040707
1465.0,0.040674
1470.0,0.040677
1475.0,0.040835
1480.0,0.040877
1485.0,0.040755
1490.0,0.040621
1495.0,0.040704
1500.0,0.040865
1505.0,0.040738
1510.0,0.040742
1515.0,0.040715
1520.0,0.040639
1525.0,0.040752
1530.0,0.040738
1535.0,0.040813
1540.0,0.040745
1545.0,0.040599
1550.0,0.040636
1555.0,0.040641
1560.0,0.04056
1565.0,0.040534
1570.0,0.040627
1575.0,0.040624
1580.0,0.04066
1585.0,0.04084
1590.0,0.040691
1595.0,0.040795
1600.0,0.040905
1605.0,0.040904
1610.0,0.040836
1615.0,0.040777
1620.0,0.040834
1625.0,0.040836
1630.0,0.040815
1635.0,0.040671
1640.0,0.040793
1645.0,0.040696
1650.0,0.040863
1655.0,0.040674
1660.0,0.040772
1665.0,0.040701
1670.0,0.040788
1675.0,0.040787
1680.0,0.040733
1685.0,0.040665
1690.0,0.040673
1695.0,0.040781
1700.0,0.04053
1705.0,0.040767
1710.0,0.04077
1715.0,0.040677
1720.0,0.040638
1725.0,0.040749
1730.0,0.040556
1735.0,0.040494
1740.0,0.040572
1745.0,0.040617
1750.0,0.040462
1755.0,0.040413
1760.0,0.040457
1765.0,0.040379
1770.0,0.040381
1775.0,0.040451
1780.0,0.040425
1785.0,0.040405
1790.0,0.040333
1795.0,0.040362
1800.0,0.04045
1805.0,0.040384
1810.0,0.040337
1815.0,0.040519
1820.0,0.040583
1825.0,0.040557
1830.0,0.04065
1835.0,0.040641
1840.0,0.040595
1845.0,0.04068
1850.0,0.040545
1855.0,0.040509
1860.0,0.040594
1865.0,0.04062
1870.0,0.040685
1875.0,0.040487
1880.0,0.040286
1885.0,0.040467
1890.0,0.040389
1895.0,0.040344
1900.0,0.040475
1905.0,0.040278
1910.0,0.040454
1915.0,0.040223
1920.0,0.040313
1925.0,0.040345
1930.0,0.040419
1935.0,0.040317
1940.0,0.040331
1945.0,0.040274
1950.0,0.040177
1955.0,0.040179
1960.0,0.040357
1965.0,0.040308
1970.0,0.040255
1975.0,0.040353
1980.0,0.040334
1985.0,0.040312
1990.0,0.040279
1995.0,0.040293
2000.0,0.040344
2005.0,0.040308
2010.0,0.040317
2015.0,0.040436
2020.0,0.040353
2025.0,0.040302
2030.0,0.040215
2035.0,0.040222
2040.0,0.040312
2045.0,0.040248
2050.0,0.040287
2055.0,0.040243
2060.0,0.040288
2065.0,0.040296
2070.0,0.040218
2075.0,0.040169
2080.0,0.040133
2085.0,0.040227
2090.0,0.040224
2095.0,0.040292
2100.0,0.040122
2105.0,0.040188
2110.0,0.040153
2115.0,0.040039
2120.0,0.040101
2125.0,0.04014
2130.0,0.039907
2135.0,0.039826
2140.0,0.03982
2145.0,0.03979
2150.0,0.039837
2155.0,0.039888
2160.0,0.039911
2165.0,0.039719
2170.0,0.039864
2175.0,0.040043
2180.0,0.040195
2185.0,0.040183
2190.0,0.040024
2195.0,0.04011
2200.0,0.040195
2205.0,0.040234
2210.0,0.040272
2215.0,0.040316
2220.0,0.040148
2225.0,0.04035
2230.0,0.04038
2235.0,0.040332
2240.0,0.040385
2245.0,0.040153
2250.0,0.040296
2255.0,0.040233
2260.0,0.040229
2265.0,0.040208
2270.0,0.040246
2275.0,0.04026
2280.0,0.04039
2285.0,0.040329
2290.0,0.040317
2295.0,0.040354
2300.0,0.040273
2305.0,0.040192
2310.0,0.040129
2315.0,0.040139
2320.0,0.040092
2325.0,0.040081
2330.0,0.040063
2335.0,0.040141
2340.0,0.040065
2345.0,0.040083
2350.0,0.040092
2355.0,0.04021
2360.0,0.040236
2365.0,0.040244
2370.0,0.040244
2375.0,0.040071
2380.0,0.040257
2385.0,0.040147
2390.0,0.040139
2395.0,0.040113
2400.0,0.040136
2405.0,0.040134
2410.0,0.040122
2415.0,0.040137
2420.0,0.040118
2425.0,0.040136
2430.0,0.040087
2435.0,0.040037
2440.0,0.040065
2445.0,0.040046
2450.0,0.040048
2455.0,0.040061
2460.0,0.04003
2465.0,0.040054
2470.0,0.040164
2475.0,0.040043
2480.0,0.04016
2485.0,0.040131
2490.0,0.04012
2495.0,0.040185
2500.0,0.040247
2502.0,0.040375
2503.2,0.040487
2504.41,0.040466
2505.62,0.040392
2506.83,0.040399
2508.05,0.040485
2509.26,0.040482
2510.48,0.040431
2511.69,0.040439
2512.91,0.040454
2514.13,0.040437
2515.35,0.040448
2516.57,0.040469
2517.79,0.040467
2519.02,0.040452
2520.24,0.040555
2521.47,0.040587
2522.69,0.040518
2523.92,0.040552
2525.15,0.04062
2526.38,0.040585
2527.61,0.040571
2528.85,0.040537
2530.08,0.040441
2531.32,0.04045
2532.55,0.040539
2533.79,0.040546
2535.03,0.040535
2536.27,0.040569
2537.51,0.040537
2538.75,0.040663
2540.0,0.040772
2541.24,0.040677
2542.49,0.040547
2543.74,0.040591
2544.99,0.040636
2546.24,0.040559
2547.49,0.040524
2548.74,0.040549
2549.99,0.040525
2551.25,0.040507
2552.5,0.040561
2553.76,0.040544
2555.02,0.040502
2556.28,0.040628
2557.54,0.040645
2558.8,0.040655
2560.07,0.040633
2561.33,0.040613
2562.6,0.040599
2563.86,0.040572
2565.13,0.04057
2566.4,0.040592
2567.67,0.040692
2568.95,0.040721
2570.22,0.040711
2571.5,0.04064
2572.77,0.040639
2574.05,0.040665
2575.33,0.040699
2576.61,0.040683
2577.89,0.040708
2579.17,0.040837
2580.46,0.040843
2581.74,0.040838
2583.03,0.040894
2584.31,0.040833
2585.6,0.040717
2586.89,0.0407
2588.19,0.040656
2589.48,0.040702
2590.77,0.04078
2592.07,0.040788
2593.36,0.04084
2594.66,0.040828
2595.96,0.040852
2597.26,0.040856
2598.56,0.040851
2599.87,0.040779
2601.17,0.040728
2602.48,0.04077
2603.78,0.040792
2605.09,0.04076
2606.4,0.040779
2607.71,0.040854
2609.03,0.040881
2610.34,0.040916
2611.66,0.040905
2612.97,0.040801
2614.29,0.040791
2615.61,0.040931
2616.93,0.040934
2618.25,0.040862
2619.57,0.04089
2620.9,0.040867
2622.22,0.040905
2623.55,0.040955
2624.88,0.040874
2626.21,0.040868
2627.54,0.040969
2628.87,0.04098
2630.21,0.040944
2631.54,0.040911
2632.88,0.040889
2634.21,0.040957
2635.55,0.040958
2636.89,0.04098
2638.24,0.041028
2639.58,0.041034
2640.92,0.0411
2642.27,0.041101
2643.62,0.041026
2644.97,0.040996
2646.32,0.041036
2647.67,0.041063
2649.02,0.041029
2650.38,0.040876
2651.73,0.04083
2653.09,0.041002
2654.45,0.040937
2655.81,0.040971
2657.17,0.041061
2658.53,0.041013
2659.89,0.040996
2661.26,0.041093
2662.63,0.041144
2664.0,0.041137
2665.36,0.041037
2666.74,0.040967
2668.11,0.040908
2669.48,0.04093
2670.86,0.040985
2672.23,0.040974
2673.61,0.041017
2674.99,0.040977
2676.37,0.040971
2677.76,0.040986
2679.14,0.040894
2680.52,0.040868
2681.91,0.040891
2683.3,0.040912
2684.69,0.040854
2686.08,0.040781
2687.47,0.040806
2688.87,0.04092
2690.26,0.040894
2691.66,0.040804
2693.06,0.040801
2694.46,0.040789
2695.86,0.040749
2697.26,0.0407
2698.66,0.04057
2700.07,0.04052
2701.48,0.040548
2702.89,0.040556
2704.3,0.040521
2705.71,0.040442
2707.12,0.040468
2708.53,0.040586
2709.95,0.040604
2711.37,0.040567
2712.79,0.040505
2714.21,0.040398
2715.63,0.040369
2717.05,0.04038
2718.48,0.040383
2719.9,0.040275
2721.33,0.040247
2722.76,0.040331
2724.19,0.040319
2725.62,0.040315
2727.06,0.04038
2728.49,0.040365
2729.93,0.040366
2731.37,0.040401
2732.81,0.040323
2734.25,0.040139
2735.69,0.040093
2737.14,0.040155
2738.58,0.04011
2740.03,0.040138
2741.48,0.040132
2742.93,0.040139
2744.38,0.040122
2745.83,0.040136
2747.29,0.040111
2748.75,0.040013
2750.2,0.039995
2751.66,0.040022
2753.13,0.040051
2754.59,0.040037
2756.05,0.040028
2757.52,0.039999
2758.99,0.040025
2760.46,0.040059
2761.93,0.040003
2763.4,0.039964
2764.87,0.039967
2766.35,0.039923
2767.82,0.039828
2769.3,0.03984
2770.78,0.039825
2772.26,0.039865
2773.75,0.039941
2775.23,0.039883
2776.72,0.039849
2778.21,0.039833
2779.7,0.03981
2781.19,0.039824
2782.68,0.039831
2784.18,0.039816
2785.67,0.03981
2787.17,0.039758
2788.67,0.039808
2790.17,0.039797
2791.67,0.03974
2793.18,0.039722
2794.68,0.039717
2796.19,0.039693
2797.7,0.039697
2799.21,0.039658
2800.72,0.039661
2802.24,0.039721
2803.75,0.039721
2805.27,0.039611
2806.79,0.039651
2808.31,0.039744
2809.83,0.03976
2811.35,0.039719
2812.88,0.03968
2814.41,0.03964
2815.93,0.039574
2817.46,0.039615
2819.0,0.039678
2820.53,0.039676
2822.07,0.03966
2823.6,0.039657
2825.14,0.039639
2826.68,0.039695
2828.22,0.039708
2829.77,0.039678
2831.31,0.039636
2832.86,0.039639
2834.41,0.039779
2835.96,0.039852
2837.51,0.039761
2839.07,0.039706
2840.62,0.039715
2842.18,0.039692
2843.74,0.039757
2845.3,0.039768
2846.86,0.039712
2848.43,0.039688
2849.99,0.039738
2851.56,0.039722
2853.13,0.039709
2854.7,0.039773
2856.27,0.039876
2857.85,0.039971
2859.42,0.039954
2861.0,0.039898
2862.58,0.039909
2864.16,0.039936
2865.75,0.039893
2867.33,0.039899
2868.92,0.039885
2870.51,0.039887
2872.1,0.03994
2873.69,0.039945
2875.28,0.039982
2876.88,0.04001
2878.48,0.040025
2880.07,0.040013
2881.68,0.03999
2883.28,0.039947
2884.88,0.039969
2886.49,0.04
2888.1,0.040028
2889.71,0.040009
2891.32,0.039978
2892.93,0.039998
2894.55,0.040009
2896.16,0.040025
2897.78,0.040022
2899.4,0.040028
2901.03,0.040018
2902.65,0.040114
2904.28,0.040157
2905.91,0.040098
2907.54,0.040093
2909.17,0.040054
2910.8,0.040095
2912.44,0.040093
2914.07,0.04011
2915.71,0.040229
2917.35,0.040245
2918.99,0.040176
2920.64,0.040133
2922.29,0.040184
2923.93,0.040265
2925.58,0.04025
2927.24,0.040205
2928.89,0.040188
2930.55,0.040186
2932.2,0.040171
2933.86,0.040183
2935.52,0.040195
2937.19,0.040199
2938.85,0.040275
2940.52,0.040294
2942.19,0.040214
2943.86,0.040181
2945.53,0.040228
2947.21,0.040281
2948.88,0.04027
2950.56,0.040298
2952.24,0.040322
2953.92,0.040389
2955.61,0.040382
2957.29,0.040371
2958.98,0.040345
2960.67,0.040356
2962.36,0.040362
2964.06,0.040385
2965.75,0.040386
2967.45,0.040427
2969.15,0.040427
2970.85,0.040348
2972.55,0.040366
2974.26,0.040512
2975.97,0.040581
2977.68,0.040606
2979.39,0.040572
2981.1,0.040515
2982.82,0.04061
2984.53,0.040641
2986.25,0.040567
2987.97,0.040571
2989.7,0.040624
2991.42,0.040648
2993.15,0.040619
2994.88,0.040653
2996.61,0.040714
2998.34,0.040748
3000.08,0.040721
3001.82,0.040714
3003.55,0.040703
3005.3,0.040633
3007.04,0.040641
3008.78,0.040706
3010.53,0.040754
3012.28,0.040777
3014.03,0.040769
3015.79,0.040753
3017.54,0.040815
3019.3,0.040861
3021.06,0.040748
3022.82,0.040716
3024.58,0.040746
3026.35,0.040793
3028.12,0.040885
3029.89,0.040921
3031.66,0.040895
3033.43,0.040876
3035.21,0.040899
3036.99,0.040928
3038.77,0.040927
3040.55,0.040842
3042.33,0.040838
3044.12,0.040925
3045.91,0.04096
3047.7,0.04095
3049.49,0.040913
3051.29,0.040947
3053.08,0.040991
3054.88,0.040984
3056.68,0.040991
3058.49,0.040948
3060.29,0.04098
3062.1,0.041032
3063.91,0.041
3065.72,0.040992
3067.54,0.041058
3069.35,0.041083
3071.17,0.041057
3072.99,0.041114
3074.81,0.041199
3076.64,0.041181
3078.47,0.041167
3080.29,0.041151
3082.13,0.041126
3083.96,0.04114
3085.79,0.041207
3087.63,0.041268
3089.47,0.041176
3091.31,0.041128
3093.16,0.041176
3095.01,0.041147
3096.85,0.041241
3098.71,0.041352
3100.56,0.041343
3102.41,0.04134
3104.27,0.041317
3106.13,0.041268
3107.99,0.04128
3109.86,0.041349
3111.73,0.041393
3113.59,0.041352
3115.47,0.041346
3117.34,0.041412
3119.21,0.041446
3121.09,0.041471
3122.97,0.041436
3124.86,0.041452
3126.74,0.041523
3128.63,0.041528
3130.52,0.041506
3132.41,0.041537
3134.3,0.041569
3136.2,0.041573
3138.1,0.041599
3140.0,0.041628
3141.9,0.041618
3143.81,0.04164
3145.71,0.041648
3147.62,0.041584
3149.54,0.041653
3151.45,0.041761
3153.37,0.04172
3155.29,0.041701
3157.21,0.041748
3159.13,0.041707
3161.06,0.041682
3162.99,0.041736
3164.92,0.041796
3166.85,0.041835
3168.79,0.041843
3170.72,0.041866
3172.67,0.041881
3174.61,0.041822
3176.55,0.041806
3178.5,0.041876
3180.45,0.041911
3182.4,0.041939
3184.36,0.041968
3186.32,0.041986
3188.27,0.042051
3190.24,0.042063
3192.2,0.042027
3194.17,0.042014
3196.14,0.042
3198.11,0.042057
3200.08,0.042161
3202.06,0.042191
3204.04,0.042128
3206.02,0.04212
3208.0,0.042135
3209.99,0.042169
3211.98,0.042242
3213.97,0.042217
3215.96,0.042232
3217.96,0.042274
3219.96,0.042334
3221.96,0.042351
3223.96,0.042343
3225.97,0.042357
3227.98,0.042364
3229.99,0.042332
3232.0,0.042352
3234.02,0.042361
3236.04,0.042347
3238.06,0.042387
3240.08,0.042439
3242.11,0.04243
3244.14,0.042394
3246.17,0.042374
3248.2,0.042406
3250.24,0.042483
3252.28,0.042503
3254.32,0.042463
3256.37,0.042512
3258.41,0.042558
3260.46,0.042578
3262.51,0.042583
3264.57,0.042608
3266.63,0.042594
3268.69,0.042581
3270.75,0.042606
3272.81,0.042635
3274.88,0.042621
3276.95,0.042638
3279.02,0.042674
3281.1,0.042628
3283.18,0.042638
3285.26,0.042656
3287.34,0.042684
3289.43,0.042742
3291.51,0.042791
3293.61,0.042794
3295.7,0.042784
3297.8,0.042784
3299.9,0.042801
3302.0,0.042773
3304.1,0.042832
3306.21,0.0429
3308.32,0.042859
3310.43,0.042858
3312.55,0.042873
3314.66,0.0429
3316.79,0.04296
3318.91,0.042999
3321.03,0.043022
3323.16,0.043031
3325.29,0.043057
3327.43,0.043063
3329.57,0.043062
3331.71,0.043057
3333.85,0.043063
3335.99,0.043035
3338.14,0.043072
3340.29,0.043089
3342.45,0.043022
3344.6,0.043032
3346.76,0.0431
3348.92,0.043155
3351.09,0.043123
3353.26,0.043092
3355.43,0.04312
3357.6,0.043193
3359.78,0.043178
3361.96,0.043152
3364.14,0.043133
3366.32,0.043169
3368.51,0.043209
3370.7,0.04321
3372.89,0.043207
3375.09,0.043198
3377.29,0.043203
3379.49,0.043215
3381.69,0.043256
3383.9,0.043303
3386.11,0.043278
3388.32,0.043268
3390.54,0.043252
3392.76,0.043263
3394.98,0.043314
3397.21,0.043304
3399.43,0.043251
3401.66,0.043239
3403.9,0.043259
3406.13,0.043306
3408.37,0.043341
3410.61,0.043313
3412.86,0.043295
3415.11,0.043331
3417.36,0.043347
3419.61,0.043323
3421.87,0.043349
3424.13,0.043417
3426.39,0.043442
3428.66,0.043433
3430.93,0.04344
3433.2,0.043465
3435.48,0.043528
3437.76,0.043556
3440.04,0.043561
3442.32,0.04363
3444.61,0.04363
3446.9,0.043577
3449.19,0.043593
3451.49,0.043645
3453.79,0.04375
3456.09,0.043756
3458.4,0.043721
3460.7,0.043728
3463.02,0.043747
3465.33,0.043751
3467.65,0.043743
3469.97,0.0438
3472.29,0.043845
3474.62,0.043849
3476.95,0.04386
3479.29,0.043821
3481.62,0.043784
3483.96,0.043823
3486.3,0.043867
3488.65,0.043903
3491.0,0.043904
3493.35,0.043851
3495.71,0.043869
3498.07,0.043959
3500.43,0.044055
3502.79,0.044034
3505.16,0.043988
3507.53,0.043985
3509.91,0.044003
3512.29,0.044055
3514.67,0.044065
3517.05,0.044093
3519.44,0.044139
3521.83,0.044146
3524.23,0.044124
3526.62,0.044127
3529.02,0.044137
3531.43,0.044185
3533.83,0.044219
3536.24,0.044274
3538.66,0.044314
3541.08,0.044297
3543.5,0.04431
3545.92,0.044337
3548.35,0.044345
3550.78,0.044358
3553.21,0.044391
3555.65,0.044416
3558.09,0.044412
3560.53,0.044439
3562.98,0.044469
3565.43,0.04448
3567.88,0.044498
3570.34,0.044505
3572.8,0.04451
3575.27,0.044506
3577.73,0.044509
3580.2,0.044544
3582.68,0.044562
3585.16,0.044564
3587.64,0.044584
3590.12,0.044576
3592.61,0.044599
3595.1,0.044634
3597.6,0.044682
3600.09,0.044718
3602.6,0.044719
3605.1,0.044712
3607.61,0.044721
3610.12,0.044715
3612.64,0.044714
3615.16,0.044718
3617.68,0.044763
3620.21,0.044744
3622.74,0.044735
3625.27,0.04482
3627.81,0.044876
3630.35,0.044854
3632.89,0.044805
3635.44,0.044801
3637.99,0.044836
3640.54,0.04486
3643.1,0.044923
3645.66,0.044985
3648.23,0.044923
3650.8,0.044872
3653.37,0.044883
3655.95,0.044878
3658.53,0.044927
3661.11,0.045017
3663.7,0.045008
3666.29,0.044962
3668.89,0.044966
3671.48,0.044981
3674.09,0.045046
3676.69,0.045065
3679.3,0.045061
3681.91,0.045031
3684.53,0.044972
3687.15,0.045012
3689.78,0.045068
3692.4,0.045071
3695.04,0.045071
3697.67,0.045145
3700.31,0.045186
3702.95,0.045145
3705.6,0.045137
3708.25,0.04513
3710.91,0.045145
3713.56,0.045182
3716.23,0.045241
3718.89,0.045249
3721.56,0.045215
3724.23,0.04523
3726.91,0.045225
3729.59,0.045233
3732.28,0.045258
3734.97,0.045291
3737.66,0.045276
3740.36,0.045278
3743.06,0.045302
3745.76,0.045317
3748.47,0.045323
3751.18,0.045353
3753.9,0.045393
