Database of Origin,University of Winnipeg Spectrophotometer Facility
Sample Description,Carbonaceous chondrites - RELAB archive 8. Lab-heated carbonaceous chondrites
Other Information,ncmb64D Heated Murchison 700C
Date Added,2018-07-23 23:45:15.954594

Data ID,RLA_MET_41_4        
Sample ID,Murchison
Mineral Name,Murchison
Grain Size,<63 um
Viewing Geometry,30/0/30
Resolution,5/ 0.6-129 nm
Material Class,CM2.5/2.7

Wavelength
305.0,0.030629
310.0,0.031244
315.0,0.031763
320.0,0.032282
325.0,0.03262
330.0,0.032591
335.0,0.032982
340.0,0.033179
345.0,0.032824
350.0,0.032953
355.0,0.033623
360.0,0.033556
365.0,0.03379
370.0,0.034372
375.0,0.034544
380.0,0.034529
385.0,0.03457
390.0,0.03462
395.0,0.034781
400.0,0.034509
405.0,0.034268
410.0,0.034892
415.0,0.034926
420.0,0.034856
425.0,0.03489
430.0,0.035088
435.0,0.035008
440.0,0.034998
445.0,0.034912
450.0,0.034862
455.0,0.034757
460.0,0.034839
465.0,0.034778
470.0,0.034827
475.0,0.034808
480.0,0.034775
485.0,0.034764
490.0,0.034763
495.0,0.034836
500.0,0.034876
505.0,0.034768
510.0,0.034772
515.0,0.034934
520.0,0.035026
525.0,0.035151
530.0,0.03516
535.0,0.035151
540.0,0.035297
545.0,0.035336
550.0,0.035393
555.0,0.03553
560.0,0.035521
565.0,0.035594
570.0,0.035616
575.0,0.035706
580.0,0.035689
585.0,0.035751
590.0,0.0359
595.0,0.035926
600.0,0.036027
605.0,0.0361
610.0,0.036295
615.0,0.036359
620.0,0.036496
625.0,0.036579
630.0,0.036631
635.0,0.036761
640.0,0.03673
645.0,0.036961
650.0,0.036903
655.0,0.036919
660.0,0.03699
665.0,0.036931
670.0,0.03698
675.0,0.037039
680.0,0.037016
685.0,0.037073
690.0,0.037098
695.0,0.037294
700.0,0.03726
705.0,0.037414
710.0,0.037224
715.0,0.037292
720.0,0.037463
725.0,0.037489
730.0,0.037639
735.0,0.037732
740.0,0.037749
745.0,0.037899
750.0,0.037983
755.0,0.038232
760.0,0.038592
765.0,0.038466
770.0,0.038632
775.0,0.038712
780.0,0.038989
785.0,0.039059
790.0,0.039318
795.0,0.039075
800.0,0.039176
805.0,0.039221
810.0,0.039008
815.0,0.039437
820.0,0.039454
825.0,0.039328
830.0,0.039326
835.0,0.039468
840.0,0.039431
845.0,0.039706
850.0,0.039719
855.0,0.039616
860.0,0.039903
865.0,0.040162
870.0,0.039889
875.0,0.040282
880.0,0.039888
885.0,0.040062
890.0,0.040193
895.0,0.040275
900.0,0.040233
905.0,0.040399
910.0,0.040603
915.0,0.040328
920.0,0.040444
925.0,0.04084
930.0,0.040887
935.0,0.040609
940.0,0.04092
945.0,0.041092
950.0,0.0409
955.0,0.041055
960.0,0.0411
965.0,0.041263
970.0,0.041382
975.0,0.041479
980.0,0.041363
985.0,0.041479
990.0,0.041466
995.0,0.041598
1000.0,0.041503
1005.0,0.04163
1010.0,0.041631
1015.0,0.041766
1020.0,0.041754
1025.0,0.041698
1030.0,0.041878
1035.0,0.04199
1040.0,0.041855
1045.0,0.042003
1050.0,0.042245
1055.0,0.042272
1060.0,0.042534
1065.0,0.042415
1070.0,0.042559
1075.0,0.042244
1080.0,0.042282
1085.0,0.042215
1090.0,0.042451
1095.0,0.042488
1100.0,0.042768
1105.0,0.042699
1110.0,0.04277
1115.0,0.04262
1120.0,0.04283
1125.0,0.042987
1130.0,0.042986
1135.0,0.043087
1140.0,0.043242
1145.0,0.043272
1150.0,0.043266
1155.0,0.043415
1160.0,0.043431
1165.0,0.043561
1170.0,0.043545
1175.0,0.043573
1180.0,0.043899
1185.0,0.043945
1190.0,0.043988
1195.0,0.043929
1200.0,0.044232
1205.0,0.044299
1210.0,0.044415
1215.0,0.04442
1220.0,0.044419
1225.0,0.044648
1230.0,0.044609
1235.0,0.044632
1240.0,0.044692
1245.0,0.044616
1250.0,0.044673
1255.0,0.044728
1260.0,0.044853
1265.0,0.045043
1270.0,0.044975
1275.0,0.044956
1280.0,0.045016
1285.0,0.045183
1290.0,0.045219
1295.0,0.045129
1300.0,0.04522
1305.0,0.045347
1310.0,0.04545
1315.0,0.045411
1320.0,0.045564
1325.0,0.045588
1330.0,0.045634
1335.0,0.045848
1340.0,0.045833
1345.0,0.045821
1350.0,0.045674
1355.0,0.045857
1360.0,0.045855
1365.0,0.045887
1370.0,0.04628
1375.0,0.045906
1380.0,0.045919
1385.0,0.046322
1390.0,0.046105
1395.0,0.046454
1400.0,0.046765
1405.0,0.046644
1410.0,0.046793
1415.0,0.046965
1420.0,0.046833
1425.0,0.046906
1430.0,0.046778
1435.0,0.046875
1440.0,0.046912
1445.0,0.047115
1450.0,0.047183
1455.0,0.047247
1460.0,0.047211
1465.0,0.047435
1470.0,0.047385
1475.0,0.047456
1480.0,0.047443
1485.0,0.04755
1490.0,0.047643
1495.0,0.04785
1500.0,0.04759
1505.0,0.047795
1510.0,0.047896
1515.0,0.047913
1520.0,0.047977
1525.0,0.048013
1530.0,0.047924
1535.0,0.048295
1540.0,0.048213
1545.0,0.048368
1550.0,0.048397
1555.0,0.048415
1560.0,0.048379
1565.0,0.048644
1570.0,0.048401
1575.0,0.048626
1580.0,0.048663
1585.0,0.048883
1590.0,0.048832
1595.0,0.048872
1600.0,0.048943
1605.0,0.048789
1610.0,0.048851
1615.0,0.048842
1620.0,0.048886
1625.0,0.04885
1630.0,0.048977
1635.0,0.049225
1640.0,0.049165
1645.0,0.049246
1650.0,0.049212
1655.0,0.049313
1660.0,0.049333
1665.0,0.04966
1670.0,0.049565
1675.0,0.049684
1680.0,0.049742
1685.0,0.049623
1690.0,0.049796
1695.0,0.049687
1700.0,0.049906
1705.0,0.0499
1710.0,0.049935
1715.0,0.049969
1720.0,0.049981
1725.0,0.049907
1730.0,0.050024
1735.0,0.050159
1740.0,0.050111
1745.0,0.050062
1750.0,0.050214
1755.0,0.050272
1760.0,0.050212
1765.0,0.050143
1770.0,0.050306
1775.0,0.050261
1780.0,0.050391
1785.0,0.050451
1790.0,0.050389
1795.0,0.050489
1800.0,0.05065
1805.0,0.050554
1810.0,0.050423
1815.0,0.05042
1820.0,0.05059
1825.0,0.050473
1830.0,0.050565
1835.0,0.050414
1840.0,0.05081
1845.0,0.05076
1850.0,0.050954
1855.0,0.05072
1860.0,0.050986
1865.0,0.050578
1870.0,0.050766
1875.0,0.051516
1880.0,0.050959
1885.0,0.050985
1890.0,0.05091
1895.0,0.05079
1900.0,0.05103
1905.0,0.051344
1910.0,0.051146
1915.0,0.05133
1920.0,0.051175
1925.0,0.05124
1930.0,0.051333
1935.0,0.051356
1940.0,0.051389
1945.0,0.051512
1950.0,0.051475
1955.0,0.051531
1960.0,0.051633
1965.0,0.051534
1970.0,0.051603
1975.0,0.051556
1980.0,0.051635
1985.0,0.051629
1990.0,0.051607
1995.0,0.051729
2000.0,0.051784
2005.0,0.051852
2010.0,0.051833
2015.0,0.05197
2020.0,0.051761
2025.0,0.051809
2030.0,0.051822
2035.0,0.051817
2040.0,0.051989
2045.0,0.051861
2050.0,0.051924
2055.0,0.052019
2060.0,0.052075
2065.0,0.052049
2070.0,0.052077
2075.0,0.052245
2080.0,0.052129
2085.0,0.052237
2090.0,0.052212
2095.0,0.052197
2100.0,0.052133
2105.0,0.052155
2110.0,0.052273
2115.0,0.052434
2120.0,0.052352
2125.0,0.052297
2130.0,0.052263
2135.0,0.05238
2140.0,0.052347
2145.0,0.052299
2150.0,0.052221
2155.0,0.052426
2160.0,0.052443
2165.0,0.052508
2170.0,0.05265
2175.0,0.052498
2180.0,0.052637
2185.0,0.052711
2190.0,0.052822
2195.0,0.05287
2200.0,0.053026
2205.0,0.053099
2210.0,0.053174
2215.0,0.053233
2220.0,0.053095
2225.0,0.053199
2230.0,0.053135
2235.0,0.053135
2240.0,0.053185
2245.0,0.053177
2250.0,0.053313
2255.0,0.053271
2260.0,0.053338
2265.0,0.053363
2270.0,0.053411
2275.0,0.053447
2280.0,0.053431
2285.0,0.053431
2290.0,0.05355
2295.0,0.053703
2300.0,0.053728
2305.0,0.053787
2310.0,0.053779
2315.0,0.053886
2320.0,0.053848
2325.0,0.053922
2330.0,0.053797
2335.0,0.054035
2340.0,0.053871
2345.0,0.054009
2350.0,0.053988
2355.0,0.053993
2360.0,0.054265
2365.0,0.053999
2370.0,0.054006
2375.0,0.053765
2380.0,0.053904
2385.0,0.053928
2390.0,0.053981
2395.0,0.054163
2400.0,0.054221
2405.0,0.054229
2410.0,0.054236
2415.0,0.054353
2420.0,0.054537
2425.0,0.054697
2430.0,0.054566
2435.0,0.054535
2440.0,0.054638
2445.0,0.054527
2450.0,0.054531
2455.0,0.054517
2460.0,0.054687
2465.0,0.054677
2470.0,0.054566
2475.0,0.054587
2480.0,0.054494
2485.0,0.054621
2490.0,0.054545
2495.0,0.054543
2500.0,0.054493
2502.0,0.054759
2503.2,0.054286
2504.41,0.054511
2505.62,0.054584
2506.83,0.054585
2508.05,0.054338
2509.26,0.054371
2510.48,0.054741
2511.69,0.054824
2512.91,0.054908
2514.13,0.054943
2515.35,0.054699
2516.57,0.054627
2517.79,0.054823
2519.02,0.054607
2520.24,0.054255
2521.47,0.053992
2522.69,0.054007
2523.92,0.054623
2525.15,0.055172
2526.38,0.054926
2527.61,0.054754
2528.85,0.054887
2530.08,0.054963
2531.32,0.054936
2532.55,0.054834
2533.79,0.054753
2535.03,0.054613
2536.27,0.054686
2537.51,0.054908
2538.75,0.054788
2540.0,0.054653
2541.24,0.05476
2542.49,0.054799
2543.74,0.054532
2544.99,0.054568
2546.24,0.054485
2547.49,0.054458
2548.74,0.054848
2549.99,0.054962
2551.25,0.054831
2552.5,0.054859
2553.76,0.055101
2555.02,0.054896
2556.28,0.054904
2557.54,0.05519
2558.8,0.055273
2560.07,0.055255
2561.33,0.054996
2562.6,0.05504
2563.86,0.055047
2565.13,0.054838
2566.4,0.054858
2567.67,0.054952
2568.95,0.054709
2570.22,0.054707
2571.5,0.055129
2572.77,0.055135
2574.05,0.054986
2575.33,0.055105
2576.61,0.054912
2577.89,0.054876
2579.17,0.055153
2580.46,0.055134
2581.74,0.055096
2583.03,0.055067
2584.31,0.055337
2585.6,0.055405
2586.89,0.055627
2588.19,0.055687
2589.48,0.055434
2590.77,0.055166
2592.07,0.055401
2593.36,0.055577
2594.66,0.055491
2595.96,0.055294
2597.26,0.055512
2598.56,0.055675
2599.87,0.056085
2601.17,0.056367
2602.48,0.056054
2603.78,0.055531
2605.09,0.055167
2606.4,0.055276
2607.71,0.055491
2609.03,0.055483
2610.34,0.05567
2611.66,0.05587
2612.97,0.055691
2614.29,0.055604
2615.61,0.055671
2616.93,0.055648
2618.25,0.055642
2619.57,0.056005
2620.9,0.055944
2622.22,0.055789
2623.55,0.05589
2624.88,0.055863
2626.21,0.055992
2627.54,0.055881
2628.87,0.055734
2630.21,0.055915
2631.54,0.055763
2632.88,0.055869
2634.21,0.055911
2635.55,0.055951
2636.89,0.055827
2638.24,0.055963
2639.58,0.056331
2640.92,0.056383
2642.27,0.056069
2643.62,0.055906
2644.97,0.056012
2646.32,0.056016
2647.67,0.055968
2649.02,0.055827
2650.38,0.055912
2651.73,0.056304
2653.09,0.056456
2654.45,0.056037
2655.81,0.055675
2657.17,0.055709
2658.53,0.055982
2659.89,0.055991
2661.26,0.055791
2662.63,0.055856
2664.0,0.056136
2665.36,0.056032
2666.74,0.055716
2668.11,0.05572
2669.48,0.055948
2670.86,0.056006
2672.23,0.055632
2673.61,0.055676
2674.99,0.056281
2676.37,0.05648
2677.76,0.055924
2679.14,0.055758
2680.52,0.055954
2681.91,0.055994
2683.3,0.055944
2684.69,0.055877
2686.08,0.055949
2687.47,0.056168
2688.87,0.056187
2690.26,0.056346
2691.66,0.056231
2693.06,0.056086
2694.46,0.055938
2695.86,0.055945
2697.26,0.056163
2698.66,0.056216
2700.07,0.056089
2701.48,0.056037
2702.89,0.056078
2704.3,0.056217
2705.71,0.056275
2707.12,0.05616
2708.53,0.05626
2709.95,0.056386
2711.37,0.056267
2712.79,0.05602
2714.21,0.05613
2715.63,0.056318
2717.05,0.056405
2718.48,0.056249
2719.9,0.056018
2721.33,0.056105
2722.76,0.056339
2724.19,0.056375
2725.62,0.056213
2727.06,0.056102
2728.49,0.056053
2729.93,0.056022
2731.37,0.056007
2732.81,0.056156
2734.25,0.056123
2735.69,0.056004
2737.14,0.055946
2738.58,0.055821
2740.03,0.055782
2741.48,0.05586
2742.93,0.055974
2744.38,0.055937
2745.83,0.055834
2747.29,0.055591
2748.75,0.05537
2750.2,0.055388
2751.66,0.055767
2753.13,0.055809
2754.59,0.055669
2756.05,0.055757
2757.52,0.055611
2758.99,0.055737
2760.46,0.055891
2761.93,0.055719
2763.4,0.055519
2764.87,0.055456
2766.35,0.055872
2767.82,0.056114
2769.3,0.055779
2770.78,0.055495
2772.26,0.055549
2773.75,0.055563
2775.23,0.05541
2776.72,0.055355
2778.21,0.055264
2779.7,0.055271
2781.19,0.055218
2782.68,0.055255
2784.18,0.055329
2785.67,0.055316
2787.17,0.055417
2788.67,0.05553
2790.17,0.055279
2791.67,0.054936
2793.18,0.054684
2794.68,0.054962
2796.19,0.055153
2797.7,0.055074
2799.21,0.054833
2800.72,0.054824
2802.24,0.055016
2803.75,0.054916
2805.27,0.054776
2806.79,0.054797
2808.31,0.054667
2809.83,0.05466
2811.35,0.054541
2812.88,0.054327
2814.41,0.054596
2815.93,0.054822
2817.46,0.054928
2819.0,0.055032
2820.53,0.054866
2822.07,0.054591
2823.6,0.054639
2825.14,0.05486
2826.68,0.054975
2828.22,0.054941
2829.77,0.054822
2831.31,0.05465
2832.86,0.05452
2834.41,0.054523
2835.96,0.054547
2837.51,0.054415
2839.07,0.054356
2840.62,0.05438
2842.18,0.054534
2843.74,0.054625
2845.3,0.054769
2846.86,0.054748
2848.43,0.054614
2849.99,0.054856
2851.56,0.055072
2853.13,0.054838
2854.7,0.054488
2856.27,0.054395
2857.85,0.054656
2859.42,0.055058
2861.0,0.055002
2862.58,0.054594
2864.16,0.054478
2865.75,0.054512
2867.33,0.05465
2868.92,0.054704
2870.51,0.054823
2872.1,0.054932
2873.69,0.054765
2875.28,0.054661
2876.88,0.054949
2878.48,0.054959
2880.07,0.054718
2881.68,0.054497
2883.28,0.054602
2884.88,0.054738
2886.49,0.054648
2888.1,0.054701
2889.71,0.054765
2891.32,0.054763
2892.93,0.054777
2894.55,0.0551
2896.16,0.055208
2897.78,0.054899
2899.4,0.054961
2901.03,0.055248
2902.65,0.055243
2904.28,0.055104
2905.91,0.054972
2907.54,0.054855
2909.17,0.055062
2910.8,0.055047
2912.44,0.05482
2914.07,0.054802
2915.71,0.054779
2917.35,0.055108
2918.99,0.055174
2920.64,0.054943
2922.29,0.055039
2923.93,0.054957
2925.58,0.054701
2927.24,0.054794
2928.89,0.055037
2930.55,0.055011
2932.2,0.05496
2933.86,0.055125
2935.52,0.055248
2937.19,0.055202
2938.85,0.055138
2940.52,0.055196
2942.19,0.055314
2943.86,0.055342
2945.53,0.055189
2947.21,0.055082
2948.88,0.055216
2950.56,0.055247
2952.24,0.05538
2953.92,0.055418
2955.61,0.055403
2957.29,0.055296
2958.98,0.055062
2960.67,0.054994
2962.36,0.055271
2964.06,0.055483
2965.75,0.055458
2967.45,0.055534
2969.15,0.055387
2970.85,0.055108
2972.55,0.055152
2974.26,0.05541
2975.97,0.055425
2977.68,0.055587
2979.39,0.055791
2981.1,0.055627
2982.82,0.055576
2984.53,0.055686
2986.25,0.055748
2987.97,0.055729
2989.7,0.055639
2991.42,0.055688
2993.15,0.055769
2994.88,0.055779
2996.61,0.055859
2998.34,0.056041
3000.08,0.056042
3001.82,0.055995
3003.55,0.055912
3005.3,0.055698
3007.04,0.055739
3008.78,0.056011
3010.53,0.056034
3012.28,0.056042
3014.03,0.056029
3015.79,0.055976
3017.54,0.056128
3019.3,0.056265
3021.06,0.056002
3022.82,0.055839
3024.58,0.055802
3026.35,0.055933
3028.12,0.056116
3029.89,0.056129
3031.66,0.056191
3033.43,0.056345
3035.21,0.056296
3036.99,0.056259
3038.77,0.056173
3040.55,0.056231
3042.33,0.056336
3044.12,0.056505
3045.91,0.056482
3047.7,0.056375
3049.49,0.056388
3051.29,0.056471
3053.08,0.056373
3054.88,0.056321
3056.68,0.056298
3058.49,0.056224
3060.29,0.056363
3062.1,0.056461
3063.91,0.05645
3065.72,0.0566
3067.54,0.056747
3069.35,0.056671
3071.17,0.056622
3072.99,0.05675
3074.81,0.056755
3076.64,0.056584
3078.47,0.056401
3080.29,0.056543
3082.13,0.056771
3083.96,0.056929
3085.79,0.056879
3087.63,0.056715
3089.47,0.056656
3091.31,0.056594
3093.16,0.056725
3095.01,0.056736
3096.85,0.056701
3098.71,0.056849
3100.56,0.056955
3102.41,0.056878
3104.27,0.057045
3106.13,0.057104
3107.99,0.057025
3109.86,0.056905
3111.73,0.056875
3113.59,0.057042
3115.47,0.057171
3117.34,0.057214
3119.21,0.057235
3121.09,0.057389
3122.97,0.057262
3124.86,0.05693
3126.74,0.056968
3128.63,0.057238
3130.52,0.05741
3132.41,0.057242
3134.3,0.057149
3136.2,0.057162
3138.1,0.057133
3140.0,0.057283
3141.9,0.057379
3143.81,0.057356
3145.71,0.057404
3147.62,0.057554
3149.54,0.057476
3151.45,0.057495
3153.37,0.057573
3155.29,0.057518
3157.21,0.057531
3159.13,0.057644
3161.06,0.057781
3162.99,0.05778
3164.92,0.057743
3166.85,0.057744
3168.79,0.057737
3170.72,0.057859
3172.67,0.057973
3174.61,0.057938
3176.55,0.057872
3178.5,0.057837
3180.45,0.057873
3182.4,0.057975
3184.36,0.057904
3186.32,0.057829
3188.27,0.057954
3190.24,0.058081
3192.2,0.058185
3194.17,0.058361
3196.14,0.058221
3198.11,0.058021
3200.08,0.058052
3202.06,0.058149
3204.04,0.058224
3206.02,0.058072
3208.0,0.058096
3209.99,0.058129
3211.98,0.058154
3213.97,0.058199
3215.96,0.058277
3217.96,0.05831
3219.96,0.058302
3221.96,0.058331
3223.96,0.058338
3225.97,0.058321
3227.98,0.058373
3229.99,0.058492
3232.0,0.058461
3234.02,0.058517
3236.04,0.058735
3238.06,0.05862
3240.08,0.058573
3242.11,0.058683
3244.14,0.05868
3246.17,0.058641
3248.2,0.058738
3250.24,0.058836
3252.28,0.058871
3254.32,0.058912
3256.37,0.058903
3258.41,0.058809
3260.46,0.058687
3262.51,0.058795
3264.57,0.058811
3266.63,0.058684
3268.69,0.058798
3270.75,0.058892
3272.81,0.058768
3274.88,0.058876
3276.95,0.059057
3279.02,0.059023
3281.1,0.059032
3283.18,0.059133
3285.26,0.059083
3287.34,0.058978
3289.43,0.059059
3291.51,0.059121
3293.61,0.059192
3295.7,0.059339
3297.8,0.059357
3299.9,0.059348
3302.0,0.059269
3304.1,0.059198
3306.21,0.059299
3308.32,0.059423
3310.43,0.05944
3312.55,0.05946
3314.66,0.059579
3316.79,0.059625
3318.91,0.059656
3321.03,0.05957
3323.16,0.059605
3325.29,0.059685
3327.43,0.059754
3329.57,0.059539
3331.71,0.059311
3333.85,0.059416
3335.99,0.059611
3338.14,0.059668
3340.29,0.059759
3342.45,0.059805
3344.6,0.059799
3346.76,0.059764
3348.92,0.059703
3351.09,0.059664
3353.26,0.059719
3355.43,0.059753
3357.6,0.059746
3359.78,0.059775
3361.96,0.059816
3364.14,0.059781
3366.32,0.059636
3368.51,0.059502
3370.7,0.059633
3372.89,0.05979
3375.09,0.059797
3377.29,0.059702
3379.49,0.05972
3381.69,0.059777
3383.9,0.059807
3386.11,0.059868
3388.32,0.059929
3390.54,0.059984
3392.76,0.059809
3394.98,0.059773
3397.21,0.059847
3399.43,0.059902
3401.66,0.059944
3403.9,0.059874
3406.13,0.059956
3408.37,0.05991
3410.61,0.059775
3412.86,0.05971
3415.11,0.059674
3417.36,0.059691
3419.61,0.059771
3421.87,0.059924
3424.13,0.060188
3426.39,0.060257
3428.66,0.060174
3430.93,0.060205
3433.2,0.060345
3435.48,0.060407
3437.76,0.060338
3440.04,0.060349
3442.32,0.060446
3444.61,0.06043
3446.9,0.060549
3449.19,0.060644
3451.49,0.060711
3453.79,0.060736
3456.09,0.060561
3458.4,0.060613
3460.7,0.060773
3463.02,0.060645
3465.33,0.060651
3467.65,0.060779
3469.97,0.0608
3472.29,0.060788
3474.62,0.060885
3476.95,0.060848
3479.29,0.060795
3481.62,0.060855
3483.96,0.060916
3486.3,0.060835
3488.65,0.060756
3491.0,0.060822
3493.35,0.060871
3495.71,0.060914
3498.07,0.060898
3500.43,0.060881
3502.79,0.061001
3505.16,0.061029
3507.53,0.060958
3509.91,0.061071
3512.29,0.061079
3514.67,0.061069
3517.05,0.061211
3519.44,0.061309
3521.83,0.061302
3524.23,0.061148
3526.62,0.061106
3529.02,0.061249
3531.43,0.061446
3533.83,0.061462
3536.24,0.061397
3538.66,0.061476
3541.08,0.061536
3543.5,0.061522
3545.92,0.06158
3548.35,0.061714
3550.78,0.061741
3553.21,0.061636
3555.65,0.06167
3558.09,0.061834
3560.53,0.061919
3562.98,0.061868
3565.43,0.061713
3567.88,0.06182
3570.34,0.06193
3572.8,0.06194
3575.27,0.06195
3577.73,0.062007
3580.2,0.062029
3582.68,0.062018
3585.16,0.062058
3587.64,0.062008
3590.12,0.061936
3592.61,0.061864
3595.1,0.061918
3597.6,0.062093
3600.09,0.062146
3602.6,0.061981
3605.1,0.061884
3607.61,0.061905
3610.12,0.061978
3612.64,0.062053
3615.16,0.062047
3617.68,0.062155
3620.21,0.062212
3622.74,0.062227
3625.27,0.062343
3627.81,0.062458
3630.35,0.062487
3632.89,0.062408
3635.44,0.062308
3637.99,0.062289
3640.54,0.062309
3643.1,0.062304
3645.66,0.062347
3648.23,0.062327
3650.8,0.062444
3653.37,0.062598
3655.95,0.062536
3658.53,0.062497
3661.11,0.062472
3663.7,0.062619
3666.29,0.062659
3668.89,0.062543
3671.48,0.062599
3674.09,0.062663
3676.69,0.06272
3679.3,0.062872
3681.91,0.062908
3684.53,0.062789
3687.15,0.062728
3689.78,0.06275
3692.4,0.062662
3695.04,0.062714
3697.67,0.062828
3700.31,0.062866
3702.95,0.062941
3705.6,0.062942
3708.25,0.062841
3710.91,0.062736
3713.56,0.06271
3716.23,0.062767
3718.89,0.062847
3721.56,0.062914
3724.23,0.062962
3726.91,0.063062
3729.59,0.063128
3732.28,0.063073
3734.97,0.063055
3737.66,0.063092
3740.36,0.0631
3743.06,0.063079
3745.76,0.063058
