Database of Origin,University of Winnipeg Spectrophotometer Facility
Sample Description,Carbonaceous chondrites - RELAB archive 2. CM chondrites
Date Added,2018-07-23 23:44:49.370367

Data ID,RLA_MET_33_3        
Sample ID,A-881955/70
Mineral Name,CM Chondrite
Grain Size,<125 um
Viewing Geometry,30/0
Material Class,CM2

Wavelength
305.0,0.017283
310.0,0.017484
315.0,0.018412
320.0,0.018797
325.0,0.019362
330.0,0.019873
335.0,0.020304
340.0,0.020711
345.0,0.021285
350.0,0.021758
355.0,0.022655
360.0,0.023455
365.0,0.02421
370.0,0.025099
375.0,0.026068
380.0,0.027083
385.0,0.027969
390.0,0.028845
395.0,0.029825
400.0,0.030559
405.0,0.031549
410.0,0.032179
415.0,0.033099
420.0,0.033948
425.0,0.035018
430.0,0.035836
435.0,0.036682
440.0,0.037479
445.0,0.038338
450.0,0.039049
455.0,0.039716
460.0,0.040344
465.0,0.040874
470.0,0.041602
475.0,0.042302
480.0,0.043097
485.0,0.043783
490.0,0.044453
495.0,0.04518
500.0,0.04596
505.0,0.046712
510.0,0.047446
515.0,0.048178
520.0,0.0489
525.0,0.049654
530.0,0.050447
535.0,0.050975
540.0,0.051506
545.0,0.051928
550.0,0.052456
555.0,0.052897
560.0,0.053272
565.0,0.053544
570.0,0.053827
575.0,0.054099
580.0,0.054289
585.0,0.054516
590.0,0.054678
595.0,0.054717
600.0,0.05479
605.0,0.054874
610.0,0.055022
615.0,0.055114
620.0,0.055154
625.0,0.055247
630.0,0.055235
635.0,0.055285
640.0,0.055256
645.0,0.055161
650.0,0.055026
655.0,0.054955
660.0,0.054851
665.0,0.054579
670.0,0.054514
675.0,0.054283
680.0,0.054019
685.0,0.053917
690.0,0.053745
695.0,0.053614
700.0,0.053385
705.0,0.053273
710.0,0.05301
715.0,0.052768
720.0,0.052797
725.0,0.05265
730.0,0.052647
735.0,0.05233
740.0,0.052223
745.0,0.052201
750.0,0.052148
755.0,0.052205
760.0,0.052118
765.0,0.052205
770.0,0.052173
775.0,0.052185
780.0,0.052087
785.0,0.052169
790.0,0.052275
795.0,0.052307
800.0,0.052207
805.0,0.052337
810.0,0.052465
815.0,0.05247
820.0,0.052432
825.0,0.05261
830.0,0.0526
835.0,0.052748
840.0,0.052672
845.0,0.052726
850.0,0.052918
855.0,0.052627
860.0,0.052735
865.0,0.052496
870.0,0.052766
875.0,0.052947
880.0,0.052381
885.0,0.052551
890.0,0.052579
895.0,0.052745
900.0,0.052858
905.0,0.052627
910.0,0.052883
915.0,0.052838
920.0,0.05304
925.0,0.05292
930.0,0.053123
935.0,0.053136
940.0,0.05301
945.0,0.053346
950.0,0.053204
955.0,0.053349
960.0,0.053486
965.0,0.053335
970.0,0.05367
975.0,0.053783
980.0,0.053897
985.0,0.053827
990.0,0.053831
995.0,0.053932
1000.0,0.053948
1005.0,0.053807
1010.0,0.053959
1015.0,0.054152
1020.0,0.05416
1025.0,0.054352
1030.0,0.054354
1035.0,0.054405
1040.0,0.054469
1045.0,0.054512
1050.0,0.054794
1055.0,0.054779
1060.0,0.054841
1065.0,0.054779
1070.0,0.054674
1075.0,0.054719
1080.0,0.054775
1085.0,0.054885
1090.0,0.054765
1095.0,0.05476
1100.0,0.054518
1105.0,0.05465
1110.0,0.054599
1115.0,0.054912
1120.0,0.055011
1125.0,0.055055
1130.0,0.0552
1135.0,0.055393
1140.0,0.055248
1145.0,0.055515
1150.0,0.055482
1155.0,0.055648
1160.0,0.055799
1165.0,0.056045
1170.0,0.056119
1175.0,0.05617
1180.0,0.056236
1185.0,0.056463
1190.0,0.056677
1195.0,0.056708
1200.0,0.056718
1205.0,0.057033
1210.0,0.057232
1215.0,0.057241
1220.0,0.057316
1225.0,0.057562
1230.0,0.057656
1235.0,0.057666
1240.0,0.057742
1245.0,0.057792
1250.0,0.057766
1255.0,0.057992
1260.0,0.058177
1265.0,0.058569
1270.0,0.058497
1275.0,0.05853
1280.0,0.05883
1285.0,0.058839
1290.0,0.059138
1295.0,0.0592
1300.0,0.059476
1305.0,0.059683
1310.0,0.05974
1315.0,0.059998
1320.0,0.060102
1325.0,0.06039
1330.0,0.060809
1335.0,0.060893
1340.0,0.060839
1345.0,0.061167
1350.0,0.06132
1355.0,0.061204
1360.0,0.061583
1365.0,0.061433
1370.0,0.061481
1375.0,0.0617
1380.0,0.061858
1385.0,0.06206
1390.0,0.062461
1395.0,0.062607
1400.0,0.062748
1405.0,0.062965
1410.0,0.063185
1415.0,0.063407
1420.0,0.063767
1425.0,0.063697
1430.0,0.064069
1435.0,0.064298
1440.0,0.064441
1445.0,0.064686
1450.0,0.064897
1455.0,0.06486
1460.0,0.065199
1465.0,0.065381
1470.0,0.065472
1475.0,0.065935
1480.0,0.066219
1485.0,0.066382
1490.0,0.066419
1495.0,0.066739
1500.0,0.06679
1505.0,0.066955
1510.0,0.067074
1515.0,0.067229
1520.0,0.067701
1525.0,0.067823
1530.0,0.067782
1535.0,0.068272
1540.0,0.068408
1545.0,0.06855
1550.0,0.068745
1555.0,0.068965
1560.0,0.069221
1565.0,0.06953
1570.0,0.069822
1575.0,0.069994
1580.0,0.070092
1585.0,0.070255
1590.0,0.070436
1595.0,0.070807
1600.0,0.070887
1605.0,0.071107
1610.0,0.07127
1615.0,0.07127
1620.0,0.071739
1625.0,0.071411
1630.0,0.071856
1635.0,0.072074
1640.0,0.072403
1645.0,0.072639
1650.0,0.072643
1655.0,0.072826
1660.0,0.073022
1665.0,0.073293
1670.0,0.073583
1675.0,0.073621
1680.0,0.073717
1685.0,0.074014
1690.0,0.074188
1695.0,0.074461
1700.0,0.074575
1705.0,0.074786
1710.0,0.075084
1715.0,0.075189
1720.0,0.075182
1725.0,0.075329
1730.0,0.07556
1735.0,0.075731
1740.0,0.075606
1745.0,0.075891
1750.0,0.075925
1755.0,0.076142
1760.0,0.076144
1765.0,0.076178
1770.0,0.076598
1775.0,0.076576
1780.0,0.076798
1785.0,0.076863
1790.0,0.077002
1795.0,0.077047
1800.0,0.077393
1805.0,0.077509
1810.0,0.077629
1815.0,0.077659
1820.0,0.077429
1825.0,0.077811
1830.0,0.077653
1835.0,0.07806
1840.0,0.077922
1845.0,0.077763
1850.0,0.078173
1855.0,0.078158
1860.0,0.078655
1865.0,0.078272
1870.0,0.078531
1875.0,0.07883
1880.0,0.078772
1885.0,0.078683
1890.0,0.078693
1895.0,0.079093
1900.0,0.079022
1905.0,0.078945
1910.0,0.07891
1915.0,0.078896
1920.0,0.078891
1925.0,0.078944
1930.0,0.078908
1935.0,0.0793
1940.0,0.079412
1945.0,0.079258
1950.0,0.07934
1955.0,0.07972
1960.0,0.079367
1965.0,0.079727
1970.0,0.080198
1975.0,0.080007
1980.0,0.080453
1985.0,0.080348
1990.0,0.080319
1995.0,0.080717
2000.0,0.081075
2005.0,0.081179
2010.0,0.081449
2015.0,0.081612
2020.0,0.081712
2025.0,0.081765
2030.0,0.082218
2035.0,0.082225
2040.0,0.082146
2045.0,0.082411
2050.0,0.082575
2055.0,0.08268
2060.0,0.082826
2065.0,0.083012
2070.0,0.083369
2075.0,0.08343
2080.0,0.083571
2085.0,0.083817
2090.0,0.083647
2095.0,0.083351
2100.0,0.08365
2105.0,0.083671
2110.0,0.084057
2115.0,0.084178
2120.0,0.084052
2125.0,0.084419
2130.0,0.084351
2135.0,0.084271
2140.0,0.084528
2145.0,0.084345
2150.0,0.08425
2155.0,0.084492
2160.0,0.084999
2165.0,0.084575
2170.0,0.084653
2175.0,0.084643
2180.0,0.084697
2185.0,0.084976
2190.0,0.085023
2195.0,0.085122
2200.0,0.085111
2205.0,0.085158
2210.0,0.085304
2215.0,0.085262
2220.0,0.085163
2225.0,0.085309
2230.0,0.085593
2235.0,0.085634
2240.0,0.085665
2245.0,0.085586
2250.0,0.085478
2255.0,0.085469
2260.0,0.085275
2265.0,0.085111
2270.0,0.08492
2275.0,0.084761
2280.0,0.084689
2285.0,0.084705
2290.0,0.08431
2295.0,0.084183
2300.0,0.084198
2305.0,0.084211
2310.0,0.084201
2315.0,0.084151
2320.0,0.08401
2325.0,0.08395
2330.0,0.083871
2335.0,0.083753
2340.0,0.08405
2345.0,0.083909
2350.0,0.083995
2355.0,0.084069
2360.0,0.083795
2365.0,0.083997
2370.0,0.084378
2375.0,0.084293
2380.0,0.08458
2385.0,0.084534
2390.0,0.08452
2395.0,0.084653
2400.0,0.084581
2405.0,0.084604
2410.0,0.084317
2415.0,0.084632
2420.0,0.084736
2425.0,0.084261
2430.0,0.084391
2435.0,0.084599
2440.0,0.08475
2445.0,0.084621
2450.0,0.08469
2455.0,0.084618
2460.0,0.084761
2465.0,0.085214
2470.0,0.08478
2475.0,0.084897
2480.0,0.08471
2485.0,0.084943
2490.0,0.084635
2495.0,0.084593
2500.0,0.084488
2505.0,0.084939
2510.0,0.08501
2515.0,0.085154
2520.0,0.085395
2525.0,0.085118
2530.0,0.085737
2535.0,0.086045
2540.0,0.086017
2545.0,0.086259
2550.0,0.085997
2555.0,0.085536
2560.0,0.085507
2565.0,0.08529
2570.0,0.085583
2575.0,0.086171
2580.0,0.085299
2585.0,0.085531
2590.0,0.085134
2595.0,0.085603
2600.0,0.085306
