Database of Origin,University of Winnipeg Spectrophotometer Facility
Sample Description,16.12. Meteorites - Ureilites 16.12.3. Pierre Hudon (JSC) samples (b) Nicolet FTIR spectra from RELAB
Other Information,bmr1ph027
Date Added,2018-07-23 23:49:07.110574

Data ID,RLA_MET2_9_1        
Sample ID,ALHA77257
Mineral Name,ureilite
Grain Size,<75 um
Viewing Geometry,30/30
Resolution,0.8-121 nm

Wavelength
2000.5,0.04224
2001.3,0.04286
2002.1,0.04338
2002.8,0.04352
2003.6,0.04338
2004.4,0.04358
2005.2,0.04363
2005.9,0.04352
2006.7,0.04343
2007.5,0.04358
2008.3,0.04415
2009.0,0.04411
2009.8,0.044
2010.6,0.04423
2011.4,0.04424
2012.2,0.04424
2012.9,0.04413
2013.7,0.04408
2014.5,0.04409
2015.3,0.04405
2016.1,0.04426
2016.8,0.04477
2017.6,0.04512
2018.4,0.04471
2019.2,0.04466
2020.0,0.04468
2020.8,0.04443
2021.6,0.0448
2022.4,0.04531
2023.2,0.04545
2023.9,0.04503
2024.7,0.04441
2025.5,0.04469
2026.3,0.04547
2027.1,0.04572
2027.9,0.04555
2028.7,0.04492
2029.5,0.04489
2030.3,0.04536
2031.1,0.04593
2031.9,0.04588
2032.7,0.0454
2033.5,0.04545
2034.3,0.04534
2035.1,0.04532
2035.9,0.04597
2036.7,0.04654
2037.5,0.04622
2038.3,0.04612
2039.1,0.0462
2039.9,0.04649
2040.7,0.04641
2041.5,0.04594
2042.3,0.04665
2043.1,0.0472
2043.9,0.0473
2044.7,0.04753
2045.5,0.04759
2046.3,0.04788
2047.1,0.04762
2047.9,0.04742
2048.7,0.04712
2049.5,0.04711
2050.4,0.04716
2051.2,0.0475
2052.0,0.04767
2052.8,0.04792
2053.6,0.04794
2054.4,0.04761
2055.2,0.04766
2056.0,0.04779
2056.9,0.04802
2057.7,0.04817
2058.5,0.04789
2059.3,0.04772
2060.1,0.04791
2060.9,0.04853
2061.8,0.04858
2062.6,0.04842
2063.4,0.04837
2064.2,0.0485
2065.1,0.04846
2065.9,0.04847
2066.7,0.04854
2067.5,0.04887
2068.3,0.04886
2069.2,0.04909
2070.0,0.04936
2070.8,0.04919
2071.6,0.04928
2072.5,0.04956
2073.3,0.04944
2074.1,0.04966
2075.0,0.04976
2075.8,0.04967
2076.6,0.04969
2077.5,0.04974
2078.3,0.04977
2079.1,0.04946
2080.0,0.0493
2080.8,0.04959
2081.6,0.05012
2082.5,0.05025
2083.3,0.05002
2084.1,0.05019
2085.0,0.04998
2085.8,0.0498
2086.7,0.04993
2087.5,0.05031
2088.3,0.05069
2089.2,0.05079
2090.0,0.05147
2090.9,0.05145
2091.7,0.05069
2092.6,0.05054
2093.4,0.05091
2094.2,0.05078
2095.1,0.05078
2095.9,0.05104
2096.8,0.05115
2097.6,0.05087
2098.5,0.05057
2099.3,0.05067
2100.2,0.05108
2101.0,0.05107
2101.9,0.05084
2102.7,0.05113
2103.6,0.05138
2104.4,0.05113
2105.3,0.05128
2106.1,0.05195
2107.0,0.05234
2107.9,0.052
2108.7,0.05175
2109.6,0.05191
2110.4,0.05214
2111.3,0.05226
2112.2,0.05234
2113.0,0.05223
2113.9,0.05226
2114.7,0.05217
2115.6,0.05199
2116.5,0.05236
2117.3,0.05281
2118.2,0.05288
2119.1,0.05281
2119.9,0.05262
2120.8,0.05232
2121.7,0.05261
2122.5,0.05277
2123.4,0.05293
2124.3,0.05295
2125.1,0.05293
2126.0,0.05297
2126.9,0.05315
2127.8,0.05316
2128.6,0.05321
2129.5,0.05344
2130.4,0.05347
2131.3,0.05356
2132.1,0.05355
2133.0,0.05342
2133.9,0.05358
2134.8,0.05406
2135.6,0.05417
2136.5,0.05392
2137.4,0.05375
2138.3,0.05376
2139.2,0.05418
2140.1,0.05453
2140.9,0.05436
2141.8,0.05423
2142.7,0.0543
2143.6,0.05422
2144.5,0.05398
2145.4,0.05402
2146.3,0.05396
2147.1,0.05409
2148.0,0.05475
2148.9,0.0546
2149.8,0.05426
2150.7,0.05435
2151.6,0.05451
2152.5,0.05477
2153.4,0.05523
2154.3,0.05518
2155.2,0.0548
2156.1,0.05503
2157.0,0.0552
2157.9,0.05537
2158.8,0.05541
2159.7,0.05517
2160.6,0.05508
2161.5,0.05517
2162.4,0.05518
2163.3,0.05546
2164.2,0.05598
2165.1,0.0558
2166.0,0.0553
2166.9,0.05511
2167.8,0.05575
2168.7,0.05613
2169.6,0.05601
2170.5,0.056
2171.4,0.05593
2172.3,0.05579
2173.3,0.05605
2174.2,0.05605
2175.1,0.05607
2176.0,0.05619
2176.9,0.05611
2177.8,0.05603
2178.7,0.05638
2179.6,0.05662
2180.6,0.0566
2181.5,0.05666
2182.4,0.0567
2183.3,0.05671
2184.2,0.05675
2185.1,0.05656
2186.1,0.05645
2187.0,0.05652
2187.9,0.05665
2188.8,0.05682
2189.8,0.05694
2190.7,0.05726
2191.6,0.05723
2192.6,0.05693
2193.5,0.05716
2194.4,0.05753
2195.3,0.0575
2196.3,0.05739
2197.2,0.05741
2198.1,0.05761
2199.1,0.05741
2200.0,0.05728
2200.9,0.05734
2201.9,0.05732
2202.8,0.05726
2203.7,0.05755
2204.7,0.05786
2205.6,0.05791
2206.5,0.05812
2207.5,0.05833
2208.4,0.05824
2209.4,0.05814
2210.3,0.05795
2211.3,0.05793
2212.2,0.05792
2213.1,0.05788
2214.1,0.05806
2215.0,0.05833
2216.0,0.05841
2216.9,0.05852
2217.9,0.05869
2218.8,0.05869
2219.8,0.05876
2220.7,0.05875
2221.7,0.05869
2222.6,0.05888
2223.6,0.05898
2224.5,0.05891
2225.5,0.05889
2226.4,0.05933
2227.4,0.05964
2228.4,0.05933
2229.3,0.05916
2230.3,0.05927
2231.2,0.0595
2232.2,0.0595
2233.1,0.05961
2234.1,0.05963
2235.1,0.05948
2236.0,0.05937
2237.0,0.05944
2238.0,0.05951
2238.9,0.05927
2239.9,0.05924
2240.9,0.05951
2241.8,0.05963
2242.8,0.05983
2243.8,0.05987
2244.8,0.05977
2245.7,0.05975
2246.7,0.05987
2247.7,0.06021
2248.6,0.06016
2249.6,0.06001
2250.6,0.06013
2251.6,0.06007
2252.6,0.06036
2253.5,0.06039
2254.5,0.0601
2255.5,0.06024
2256.5,0.06058
2257.5,0.06054
2258.4,0.06053
2259.4,0.06064
2260.4,0.06075
2261.4,0.06117
2262.4,0.06127
2263.4,0.06092
2264.4,0.06082
2265.4,0.061
2266.3,0.06111
2267.3,0.06125
2268.3,0.06136
2269.3,0.06137
2270.3,0.06146
2271.3,0.06136
2272.3,0.06111
2273.3,0.06102
2274.3,0.061
2275.3,0.06137
2276.3,0.06153
2277.3,0.06138
2278.3,0.06149
2279.3,0.06185
2280.3,0.0619
2281.3,0.06185
2282.3,0.06203
2283.3,0.06208
2284.3,0.06184
2285.3,0.062
2286.3,0.06213
2287.3,0.06199
2288.4,0.06194
2289.4,0.0621
2290.4,0.06222
2291.4,0.06227
2292.4,0.06239
2293.4,0.06254
2294.4,0.06253
2295.4,0.06246
2296.5,0.06241
2297.5,0.06256
2298.5,0.06241
2299.5,0.06231
2300.5,0.06248
2301.6,0.06266
2302.6,0.06275
2303.6,0.06271
2304.6,0.06272
2305.6,0.06279
2306.7,0.06295
2307.7,0.06327
2308.7,0.06315
2309.8,0.06312
2310.8,0.06314
2311.8,0.06329
2312.9,0.06354
2313.9,0.06368
2314.9,0.06355
2315.9,0.06348
2317.0,0.06366
2318.0,0.06356
2319.1,0.06341
2320.1,0.06339
2321.1,0.06351
2322.2,0.06365
2323.2,0.06385
2324.3,0.06389
2325.3,0.06388
2326.3,0.06399
2327.4,0.0641
2328.4,0.06411
2329.5,0.06402
2330.5,0.06396
2331.6,0.06396
2332.6,0.06402
2333.7,0.06415
2334.7,0.0642
2335.8,0.06414
2336.8,0.06409
2337.9,0.06419
2338.9,0.06454
2340.0,0.06469
2341.0,0.06467
2342.1,0.06453
2343.2,0.06451
2344.2,0.06456
2345.3,0.06442
2346.3,0.06458
2347.4,0.06466
2348.5,0.06467
2349.5,0.0648
2350.6,0.06492
2351.7,0.06504
2352.7,0.06508
2353.8,0.06512
2354.9,0.06506
2355.9,0.06503
2357.0,0.06524
2358.1,0.06517
2359.1,0.06513
2360.2,0.06522
2361.3,0.06523
2362.4,0.06537
2363.4,0.06548
2364.5,0.0656
2365.6,0.06571
2366.7,0.06562
2367.8,0.06546
2368.9,0.06551
2369.9,0.06567
2371.0,0.06571
2372.1,0.06569
2373.2,0.06561
2374.3,0.06582
2375.4,0.0661
2376.4,0.06613
2377.5,0.06599
2378.6,0.06598
2379.7,0.06579
2380.8,0.06593
2381.9,0.06619
2383.0,0.06631
2384.1,0.06613
2385.2,0.06605
2386.3,0.0664
2387.4,0.06657
2388.5,0.06636
2389.6,0.06614
2390.7,0.0662
2391.8,0.06645
2392.9,0.06665
2394.0,0.06679
2395.1,0.06664
2396.2,0.06673
2397.3,0.0668
2398.4,0.06666
2399.6,0.06671
2400.7,0.06689
2401.8,0.06684
2402.9,0.06688
2404.0,0.0671
2405.1,0.06707
2406.2,0.06708
2407.4,0.06726
2408.5,0.06726
2409.6,0.06711
2410.7,0.06708
2411.8,0.06712
2412.9,0.06716
2414.1,0.06738
2415.2,0.06753
2416.3,0.06756
2417.4,0.06758
2418.6,0.06739
2419.7,0.06742
2420.8,0.06756
2422.0,0.06747
2423.1,0.06737
2424.2,0.06735
2425.4,0.06744
2426.5,0.06756
2427.6,0.06764
2428.8,0.06795
2429.9,0.0682
2431.1,0.06814
2432.2,0.06793
2433.3,0.06788
2434.5,0.06807
2435.6,0.06821
2436.8,0.06806
2437.9,0.06798
2439.1,0.0682
2440.2,0.0684
2441.4,0.06843
2442.5,0.0684
2443.6,0.06836
2444.8,0.06851
2446.0,0.06863
2447.1,0.06844
2448.3,0.06836
2449.4,0.06848
2450.6,0.06862
2451.7,0.06877
2452.9,0.06886
2454.1,0.0688
2455.2,0.06865
2456.4,0.06862
2457.6,0.06879
2458.7,0.06886
2459.9,0.06884
2461.1,0.06885
2462.2,0.06886
2463.4,0.06894
2464.6,0.06895
2465.7,0.06892
2466.9,0.06905
2468.1,0.06918
2469.3,0.06915
2470.4,0.06911
2471.6,0.0692
2472.8,0.06933
2474.0,0.06938
2475.1,0.06939
2476.3,0.0695
2477.5,0.0695
2478.7,0.0693
2479.9,0.06917
2481.1,0.06937
2482.3,0.06965
2483.4,0.06972
2484.6,0.0696
2485.8,0.06963
2487.0,0.06969
2488.2,0.06971
2489.4,0.06982
2490.6,0.06979
2491.8,0.06985
2493.0,0.06989
2494.2,0.06999
2495.4,0.06997
2496.6,0.06995
2497.8,0.06991
2499.0,0.07003
2500.2,0.07038
2501.4,0.07045
2502.6,0.07023
2503.8,0.07025
2505.0,0.07036
2506.3,0.07034
2507.5,0.07043
2508.7,0.07047
2509.9,0.07035
2511.1,0.0702
2512.3,0.0703
2513.5,0.07052
2514.8,0.07069
2516.0,0.07091
2517.2,0.07092
2518.4,0.07055
2519.6,0.07036
2520.9,0.07053
2522.1,0.07085
2523.3,0.07107
2524.6,0.07103
2525.8,0.07088
2527.0,0.07077
2528.3,0.07087
2529.5,0.07111
2530.7,0.07119
2531.9,0.07114
2533.2,0.07109
2534.4,0.07114
2535.7,0.07107
2536.9,0.07115
2538.1,0.07121
2539.4,0.07124
2540.6,0.07129
2541.9,0.07145
2543.1,0.07144
2544.4,0.07139
2545.6,0.07142
2546.9,0.07138
2548.1,0.07152
2549.4,0.07168
2550.6,0.07165
2551.9,0.07158
2553.1,0.07158
2554.4,0.07166
2555.7,0.07177
2556.9,0.0718
2558.2,0.07188
2559.4,0.07193
2560.7,0.07193
2562.0,0.07192
2563.2,0.07201
2564.5,0.07208
2565.8,0.07195
2567.1,0.07192
2568.3,0.072
2569.6,0.07216
2570.9,0.07217
2572.1,0.07219
2573.4,0.0722
2574.7,0.07217
2576.0,0.07226
2577.3,0.07237
2578.5,0.07233
2579.8,0.0723
2581.1,0.07229
2582.4,0.07224
2583.7,0.07234
2585.0,0.0725
2586.3,0.07259
2587.5,0.07251
2588.8,0.07254
2590.1,0.07265
2591.4,0.07269
2592.7,0.07277
2594.0,0.07306
2595.3,0.07332
2596.6,0.07297
2597.9,0.07277
2599.2,0.07287
2600.5,0.0729
2601.8,0.07295
2603.1,0.07305
2604.4,0.07318
2605.8,0.07307
2607.1,0.07304
2608.4,0.07303
2609.7,0.07302
2611.0,0.07305
2612.3,0.07299
2613.6,0.07303
2614.9,0.07325
2616.3,0.07347
2617.6,0.07343
2618.9,0.07345
2620.2,0.07348
2621.6,0.07323
2622.9,0.07326
2624.2,0.07346
2625.5,0.07355
2626.9,0.07362
2628.2,0.07361
2629.5,0.07375
2630.9,0.07374
2632.2,0.07352
2633.5,0.07345
2634.9,0.07353
2636.2,0.07354
2637.6,0.0736
2638.9,0.07369
2640.2,0.07379
2641.6,0.07381
2642.9,0.07383
2644.3,0.07397
2645.6,0.07404
2647.0,0.07392
2648.3,0.07398
2649.7,0.07409
2651.0,0.07409
2652.4,0.07413
2653.8,0.07412
2655.1,0.07405
2656.5,0.07413
2657.8,0.07429
2659.2,0.07445
2660.6,0.07431
2661.9,0.07428
2663.3,0.07445
2664.7,0.07459
2666.0,0.07466
2667.4,0.07461
2668.8,0.07451
2670.1,0.07454
2671.5,0.07453
2672.9,0.07454
2674.3,0.07443
2675.7,0.07434
2677.0,0.07456
2678.4,0.07463
2679.8,0.07455
2681.2,0.07452
2682.6,0.07457
2684.0,0.07473
2685.4,0.0747
2686.8,0.07471
2688.1,0.07472
2689.5,0.07466
2690.9,0.07459
2692.3,0.07461
2693.7,0.07472
2695.1,0.07473
2696.5,0.07467
2697.9,0.07464
2699.3,0.07461
2700.8,0.07467
2702.1,0.0748
2703.6,0.0749
2705.0,0.07485
2706.4,0.07466
2707.8,0.07466
2709.2,0.07476
2710.6,0.07485
2712.1,0.07479
2713.5,0.07461
2714.9,0.07448
2716.3,0.07438
2717.7,0.07446
2719.2,0.07471
2720.6,0.07478
2722.0,0.07457
2723.4,0.07463
2724.9,0.07464
2726.3,0.07443
2727.7,0.07444
2729.2,0.0745
2730.6,0.07444
2732.1,0.07436
2733.5,0.07433
2734.9,0.07441
2736.4,0.07442
2737.8,0.07436
2739.3,0.07442
2740.7,0.07431
2742.2,0.07403
2743.6,0.07395
2745.1,0.07394
2746.5,0.07392
2748.0,0.07389
2749.4,0.07379
2750.9,0.07374
2752.4,0.07365
2753.8,0.07365
2755.3,0.07376
2756.7,0.07361
2758.2,0.07342
2759.7,0.07332
2761.1,0.07325
2762.6,0.07324
2764.1,0.07321
2765.6,0.07304
2767.0,0.07287
2768.5,0.07286
2770.0,0.07287
2771.5,0.07283
2773.0,0.07262
2774.4,0.07247
2775.9,0.0724
2777.4,0.07237
2778.9,0.07234
2780.4,0.07232
2781.9,0.07219
2783.4,0.07209
2784.9,0.07201
2786.4,0.07198
2787.9,0.07197
2789.4,0.07182
2790.9,0.07172
2792.4,0.07173
2793.9,0.07164
2795.4,0.07153
2796.9,0.0714
2798.4,0.07124
2799.9,0.07121
2801.4,0.07121
2802.9,0.07115
2804.4,0.07111
2806.0,0.07107
2807.5,0.07098
2809.0,0.07084
2810.5,0.07077
2812.1,0.07079
2813.6,0.07079
2815.1,0.0707
2816.6,0.07061
2818.2,0.07057
2819.7,0.07045
2821.2,0.07046
2822.8,0.07051
2824.3,0.07045
2825.9,0.07039
2827.4,0.0704
2828.9,0.07036
2830.5,0.07029
2832.0,0.07028
2833.6,0.07029
2835.1,0.07021
2836.7,0.07013
2838.2,0.07015
2839.8,0.07017
2841.3,0.06999
2842.9,0.06992
2844.4,0.06995
2846.0,0.0699
2847.6,0.06966
2849.1,0.06964
2850.7,0.06976
2852.3,0.06974
2853.8,0.06974
2855.4,0.06977
2857.0,0.06971
2858.6,0.06955
2860.1,0.0694
2861.7,0.06937
2863.3,0.0694
2864.9,0.06945
2866.5,0.06946
2868.1,0.06943
2869.6,0.06938
2871.2,0.06936
2872.8,0.06931
2874.4,0.06926
2876.0,0.0693
2877.6,0.06926
2879.2,0.06931
2880.8,0.06939
2882.4,0.06927
2884.0,0.06912
2885.6,0.06912
2887.2,0.06915
2888.8,0.06922
2890.4,0.06927
2892.0,0.06924
2893.6,0.06913
2895.3,0.06905
2896.9,0.06898
2898.5,0.06897
2900.1,0.06906
2901.8,0.06915
2903.4,0.06909
2905.0,0.06891
2906.6,0.06894
2908.3,0.06896
2909.9,0.06897
2911.5,0.06896
2913.2,0.06899
2914.8,0.06903
2916.4,0.06902
2918.1,0.06897
2919.7,0.06899
2921.4,0.06901
2923.0,0.06892
2924.7,0.06891
2926.3,0.06904
2928.0,0.06901
2929.6,0.06893
2931.3,0.069
2932.9,0.069
2934.6,0.069
2936.3,0.06894
2937.9,0.069
2939.6,0.06904
2941.3,0.06895
2942.9,0.0689
2944.6,0.06899
2946.3,0.06909
2947.9,0.06909
2949.6,0.06905
2951.3,0.06899
2953.0,0.06902
2954.7,0.069
2956.3,0.06903
2958.0,0.0691
2959.7,0.06909
2961.4,0.06907
2963.1,0.06909
2964.8,0.06907
2966.5,0.06899
2968.2,0.06896
2969.9,0.06898
2971.6,0.06906
2973.3,0.06917
2975.0,0.06914
2976.7,0.06913
2978.4,0.06916
2980.1,0.0692
2981.9,0.06927
2983.6,0.06927
2985.3,0.06916
2987.0,0.06916
2988.7,0.06917
2990.4,0.06921
2992.2,0.06923
2993.9,0.06918
2995.6,0.06913
2997.4,0.06914
2999.1,0.06918
3000.8,0.06919
3002.6,0.06917
3004.3,0.06915
3006.1,0.0692
3007.8,0.06927
3009.5,0.0693
3011.3,0.06929
3013.0,0.06927
3014.8,0.06927
3016.5,0.06927
3018.3,0.06928
3020.1,0.06921
3021.8,0.06918
3023.6,0.06919
3025.3,0.0691
3027.1,0.06914
3028.9,0.0692
3030.6,0.0692
3032.4,0.06928
3034.2,0.06938
3036.0,0.06937
3037.7,0.06943
3039.5,0.06945
3041.3,0.0694
3043.1,0.06935
3044.9,0.06924
3046.7,0.06925
3048.5,0.0694
3050.3,0.06942
3052.1,0.06941
3053.8,0.06928
3055.6,0.06921
3057.4,0.06928
3059.3,0.06933
3061.1,0.06934
3062.9,0.06932
3064.7,0.06932
3066.5,0.06927
3068.3,0.06926
3070.1,0.06928
3071.9,0.06924
3073.8,0.0692
3075.6,0.06923
3077.4,0.06922
3079.2,0.06916
3081.1,0.06916
3082.9,0.06924
3084.7,0.06922
3086.6,0.06922
3088.4,0.06927
3090.2,0.06921
3092.1,0.06916
3093.9,0.06921
3095.8,0.06929
3097.6,0.0693
3099.5,0.06926
3101.3,0.0693
3103.2,0.06938
3105.1,0.06937
3106.9,0.06935
3108.8,0.06935
3110.6,0.06934
3112.5,0.06937
3114.4,0.06941
3116.2,0.06943
3118.1,0.06944
3120.0,0.06948
3121.9,0.06957
3123.8,0.0697
3125.6,0.06969
3127.5,0.06965
3129.4,0.06968
3131.3,0.06964
3133.2,0.06962
3135.1,0.06968
3137.0,0.06973
3138.9,0.06981
3140.8,0.06986
3142.7,0.06987
3144.6,0.06986
3146.5,0.06998
3148.4,0.07012
3150.3,0.07018
3152.2,0.07024
3154.1,0.07027
3156.1,0.0703
3158.0,0.07036
3159.9,0.07042
3161.8,0.0704
3163.8,0.07045
3165.7,0.07055
3167.6,0.07064
3169.6,0.07068
3171.5,0.07074
3173.5,0.07089
3175.4,0.071
3177.3,0.07099
3179.3,0.07102
3181.2,0.07112
3183.2,0.07124
3185.1,0.07127
3187.1,0.07127
3189.1,0.07134
3191.0,0.07142
3193.0,0.07147
3195.0,0.07156
3196.9,0.07166
3198.9,0.07174
3200.9,0.07184
3202.9,0.07196
3204.8,0.07196
3206.8,0.07199
3208.8,0.07209
3210.8,0.07224
3212.8,0.07232
3214.8,0.07236
3216.8,0.07244
3218.8,0.07252
3220.8,0.0726
3222.8,0.07263
3224.8,0.07276
3226.8,0.07288
3228.8,0.07296
3230.8,0.07299
3232.8,0.07301
3234.8,0.07308
3236.8,0.07319
3238.9,0.07325
3240.9,0.07335
3242.9,0.07346
3244.9,0.07359
3247.0,0.07364
3249.0,0.0737
3251.1,0.07381
3253.1,0.07394
3255.1,0.07407
3257.2,0.0741
3259.2,0.07409
3261.3,0.07424
3263.3,0.07437
3265.4,0.07445
3267.4,0.07457
3269.5,0.07468
3271.6,0.07473
3273.6,0.07471
3275.7,0.07478
3277.8,0.07487
3279.8,0.07498
3281.9,0.07506
3284.0,0.07507
3286.1,0.07509
3288.2,0.07513
3290.2,0.07522
3292.3,0.07531
3294.4,0.07537
3296.5,0.07548
3298.6,0.07564
3300.7,0.07575
3302.8,0.07578
3304.9,0.07574
3307.0,0.07581
3309.1,0.07595
3311.3,0.07602
3313.4,0.07607
3315.5,0.07611
3317.6,0.07611
3319.7,0.07613
3321.9,0.07626
3324.0,0.07643
3326.1,0.07644
3328.3,0.07644
3330.4,0.07655
3332.5,0.07665
3334.7,0.07666
3336.8,0.07666
3339.0,0.07673
3341.1,0.07679
3343.3,0.07686
3345.4,0.07699
3347.6,0.07708
3349.8,0.07715
3351.9,0.07716
3354.1,0.07721
3356.3,0.0773
3358.4,0.07735
3360.6,0.07729
3362.8,0.0773
3365.0,0.07737
3367.2,0.07744
3369.4,0.07748
3371.5,0.07752
3373.7,0.07756
3375.9,0.07758
3378.1,0.07767
3380.3,0.07775
3382.5,0.07777
3384.7,0.0778
3386.9,0.07784
3389.2,0.07786
3391.4,0.07795
3393.6,0.07803
3395.8,0.07803
3398.1,0.07805
3400.3,0.07801
3402.5,0.07798
3404.7,0.07799
3407.0,0.07804
3409.2,0.07807
3411.5,0.07804
3413.7,0.07797
3416.0,0.07795
3418.2,0.07804
3420.5,0.07817
3422.7,0.07827
3425.0,0.07835
3427.3,0.07841
3429.5,0.07859
3431.8,0.07874
3434.1,0.07882
3436.3,0.07895
3438.6,0.07906
3440.9,0.07914
3443.2,0.07922
3445.5,0.07928
3447.8,0.07932
3450.1,0.07947
3452.4,0.07955
3454.6,0.07962
3456.9,0.07965
3459.3,0.07962
3461.6,0.07966
3463.9,0.07974
3466.2,0.07978
3468.5,0.07985
3470.8,0.07997
3473.2,0.08004
3475.5,0.07999
3477.8,0.07997
3480.1,0.08002
3482.5,0.0801
3484.8,0.08013
3487.2,0.08017
3489.5,0.08021
3491.9,0.08018
3494.2,0.08015
3496.6,0.08011
3498.9,0.08008
3501.3,0.08013
3503.7,0.08023
3506.0,0.08036
3508.4,0.08048
3510.8,0.08057
3513.2,0.08061
3515.5,0.08075
3517.9,0.08083
3520.3,0.0809
3522.7,0.08101
3525.1,0.0811
3527.5,0.08115
3529.9,0.08119
3532.3,0.08125
3534.7,0.08132
3537.1,0.08135
3539.5,0.08142
3541.9,0.08145
3544.4,0.08149
3546.8,0.08155
3549.2,0.08159
3551.7,0.0816
3554.1,0.08167
3556.5,0.08176
3559.0,0.08181
3561.4,0.08179
3563.9,0.0819
3566.3,0.08197
3568.8,0.08198
3571.2,0.08209
3573.7,0.08218
3576.1,0.08219
3578.6,0.0822
3581.1,0.08226
3583.6,0.08226
3586.0,0.08231
3588.5,0.0824
3591.0,0.08246
3593.5,0.08251
3596.0,0.0826
3598.5,0.08265
3601.0,0.08269
3603.5,0.08271
3606.0,0.0827
3608.5,0.08272
3611.0,0.08278
3613.5,0.08286
3616.1,0.08286
3618.6,0.08287
3621.1,0.08298
3623.6,0.08304
3626.2,0.08309
3628.7,0.08315
3631.3,0.08321
3633.8,0.08327
3636.3,0.08323
3638.9,0.08332
3641.4,0.08342
3644.0,0.08343
3646.6,0.08344
3649.1,0.08344
3651.7,0.08349
3654.3,0.08355
3656.9,0.08357
3659.4,0.08362
3662.0,0.0837
3664.6,0.08373
3667.2,0.08373
3669.8,0.0838
3672.4,0.08386
3675.0,0.08387
3677.6,0.08388
3680.2,0.08391
3682.8,0.08393
3685.4,0.08402
3688.1,0.0841
3690.7,0.08417
3693.3,0.0842
3695.9,0.0842
3698.6,0.08421
3701.2,0.0843
3703.9,0.08438
3706.5,0.08438
3709.2,0.08443
3711.8,0.0845
3714.5,0.0845
3717.1,0.08451
3719.8,0.08461
3722.5,0.08465
3725.2,0.08463
3727.8,0.08467
3730.5,0.08473
3733.2,0.08481
3735.9,0.08484
3738.6,0.08484
3741.3,0.08483
3744.0,0.0849
3746.7,0.08493
3749.4,0.08494
3752.1,0.08495
3754.8,0.08498
3757.6,0.08502
3760.3,0.0851
3763.0,0.08516
3765.7,0.08518
3768.5,0.08518
3771.2,0.08517
3774.0,0.08521
3776.7,0.08523
3779.5,0.08525
3782.2,0.08529
3785.0,0.08537
3787.7,0.0854
3790.5,0.08541
3793.3,0.08543
3796.1,0.08545
3798.8,0.0855
3801.6,0.08555
3804.4,0.08557
3807.2,0.08569
3810.0,0.08583
