Database of Origin,University of Winnipeg Spectrophotometer Facility
Sample Description,RELAB + Nicolet spectral data. See Master Chromites in HOSERLAB sample database for additional info
Date Added,2016-11-30 00:50:18.128578

Data ID,RLA_CHR_07          
Sample ID,CHR107
Mineral Name,Chromite
Grain Size,<45
Viewing Geometry,"30/0,30"
Resolution,1.2-129
Formula,FeCr2O4
Material Class,Oxide

Wavelength
305.0,0.037612
310.0,0.038661
315.0,0.038462
320.0,0.039152
325.0,0.039451
330.0,0.039697
335.0,0.040068
340.0,0.040583
345.0,0.040986
350.0,0.040791
355.0,0.041373
360.0,0.041818
365.0,0.042475
370.0,0.042797
375.0,0.043095
380.0,0.043283
385.0,0.043917
390.0,0.044324
395.0,0.044578
400.0,0.04544
405.0,0.046401
410.0,0.046262
415.0,0.04675
420.0,0.047432
425.0,0.048603
430.0,0.049557
435.0,0.050985
440.0,0.05196
445.0,0.05312
450.0,0.054369
455.0,0.055361
460.0,0.056494
465.0,0.057085
470.0,0.05815
475.0,0.059037
480.0,0.05967
485.0,0.060735
490.0,0.061624
495.0,0.06303
500.0,0.064376
505.0,0.06638
510.0,0.068231
515.0,0.070462
520.0,0.072806
525.0,0.075501
530.0,0.078423
535.0,0.080939
540.0,0.08346
545.0,0.085142
550.0,0.086435
555.0,0.087151
560.0,0.087599
565.0,0.088126
570.0,0.088678
575.0,0.089153
580.0,0.089929
585.0,0.090918
590.0,0.092119
595.0,0.093535
600.0,0.095301
605.0,0.097376
610.0,0.10066
615.0,0.103889
620.0,0.107977
625.0,0.112149
630.0,0.116031
635.0,0.119292
640.0,0.121769
645.0,0.123133
650.0,0.123089
655.0,0.1222
660.0,0.121455
665.0,0.121736
670.0,0.122877
675.0,0.123703
680.0,0.124911
685.0,0.125637
690.0,0.126348
695.0,0.127348
700.0,0.128664
705.0,0.130736
710.0,0.13286
715.0,0.134993
720.0,0.136996
725.0,0.139153
730.0,0.141483
735.0,0.143701
740.0,0.14566
745.0,0.147372
750.0,0.14884
755.0,0.150736
760.0,0.151762
765.0,0.153279
770.0,0.154174
775.0,0.155499
780.0,0.156933
785.0,0.158127
790.0,0.159167
795.0,0.160558
800.0,0.161002
805.0,0.162853
810.0,0.164422
815.0,0.165004
820.0,0.166203
825.0,0.166931
830.0,0.168099
835.0,0.168642
840.0,0.169111
845.0,0.169926
850.0,0.170906
855.0,0.170885
860.0,0.171114
865.0,0.172079
870.0,0.172524
875.0,0.172871
880.0,0.173202
885.0,0.172342
890.0,0.172951
895.0,0.172864
900.0,0.173006
905.0,0.173552
910.0,0.17354
915.0,0.174131
920.0,0.174744
925.0,0.174601
930.0,0.17556
935.0,0.176378
940.0,0.177505
945.0,0.178525
950.0,0.179955
955.0,0.181033
960.0,0.183303
965.0,0.184701
970.0,0.186428
975.0,0.18869
980.0,0.190329
985.0,0.192119
990.0,0.19442
995.0,0.196379
1000.0,0.198719
1005.0,0.200556
1010.0,0.203054
1015.0,0.205493
1020.0,0.207586
1025.0,0.209667
1030.0,0.211857
1035.0,0.214112
1040.0,0.216286
1045.0,0.21795
1050.0,0.219323
1055.0,0.221015
1060.0,0.223003
1065.0,0.224988
1070.0,0.226295
1075.0,0.228022
1080.0,0.229494
1085.0,0.231048
1090.0,0.231874
1095.0,0.233155
1100.0,0.233836
1105.0,0.234487
1110.0,0.23559
1115.0,0.23573
1120.0,0.236752
1125.0,0.237183
1130.0,0.237173
1135.0,0.236812
1140.0,0.237987
1145.0,0.237478
1150.0,0.237207
1155.0,0.238506
1160.0,0.237134
1165.0,0.23788
1170.0,0.237893
1175.0,0.237651
1180.0,0.2376
1185.0,0.237718
1190.0,0.238981
1195.0,0.239458
1200.0,0.239048
1205.0,0.239029
1210.0,0.240163
1215.0,0.23891
1220.0,0.23952
1225.0,0.2407
1230.0,0.241188
1235.0,0.241857
1240.0,0.242181
1245.0,0.242345
1250.0,0.243172
1255.0,0.243988
1260.0,0.244083
1265.0,0.244558
1270.0,0.245319
1275.0,0.246184
1280.0,0.246627
1285.0,0.247742
1290.0,0.250191
1295.0,0.249088
1300.0,0.249572
1305.0,0.250854
1310.0,0.252702
1315.0,0.253667
1320.0,0.255297
1325.0,0.256608
1330.0,0.257956
1335.0,0.259225
1340.0,0.261051
1345.0,0.263298
1350.0,0.264126
1355.0,0.266173
1360.0,0.268629
1365.0,0.268098
1370.0,0.270043
1375.0,0.271813
1380.0,0.274552
1385.0,0.273516
1390.0,0.275041
1395.0,0.27769
1400.0,0.280487
1405.0,0.281327
1410.0,0.282728
1415.0,0.28395
1420.0,0.285187
1425.0,0.286582
1430.0,0.286831
1435.0,0.288626
1440.0,0.288871
1445.0,0.290048
1450.0,0.289602
1455.0,0.290409
1460.0,0.290204
1465.0,0.289928
1470.0,0.290492
1475.0,0.289376
1480.0,0.289493
1485.0,0.286531
1490.0,0.286152
1495.0,0.286292
1500.0,0.284602
1505.0,0.282747
1510.0,0.281188
1515.0,0.279614
1520.0,0.276647
1525.0,0.27395
1530.0,0.271472
1535.0,0.268897
1540.0,0.26751
1545.0,0.264
1550.0,0.260479
1555.0,0.257442
1560.0,0.254832
1565.0,0.251832
1570.0,0.24808
1575.0,0.245309
1580.0,0.241531
1585.0,0.239085
1590.0,0.234913
1595.0,0.232218
1600.0,0.228266
1605.0,0.224706
1610.0,0.221164
1615.0,0.218063
1620.0,0.214289
1625.0,0.210392
1630.0,0.206177
1635.0,0.202825
1640.0,0.199508
1645.0,0.196652
1650.0,0.192531
1655.0,0.189763
1660.0,0.184447
1665.0,0.180865
1670.0,0.177744
1675.0,0.174568
1680.0,0.171679
1685.0,0.167991
1690.0,0.164864
1695.0,0.161816
1700.0,0.158951
1705.0,0.155739
1710.0,0.15225
1715.0,0.149578
1720.0,0.146468
1725.0,0.143878
1730.0,0.141085
1735.0,0.138513
1740.0,0.135671
1745.0,0.133073
1750.0,0.130714
1755.0,0.128011
1760.0,0.125586
1765.0,0.123467
1770.0,0.121313
1775.0,0.118924
1780.0,0.116648
1785.0,0.114634
1790.0,0.112153
1795.0,0.110318
1800.0,0.108476
1805.0,0.106534
1810.0,0.104456
1815.0,0.102855
1820.0,0.10073
1825.0,0.099593
1830.0,0.097637
1835.0,0.095552
1840.0,0.09482
1845.0,0.093186
1850.0,0.091847
1855.0,0.090204
1860.0,0.089204
1865.0,0.087354
1870.0,0.085632
1875.0,0.08513
1880.0,0.084305
1885.0,0.082076
1890.0,0.080743
1895.0,0.079907
1900.0,0.077437
1905.0,0.077314
1910.0,0.076406
1915.0,0.075095
1920.0,0.074014
1925.0,0.073727
1930.0,0.07239
1935.0,0.071303
1940.0,0.070721
1945.0,0.0698
1950.0,0.069017
1955.0,0.068275
1960.0,0.067391
1965.0,0.066739
1970.0,0.066248
1975.0,0.06548
1980.0,0.064875
1985.0,0.064597
1990.0,0.063815
1995.0,0.06328
2000.0,0.062678
2005.0,0.062362
2010.0,0.061795
2015.0,0.061354
2020.0,0.060764
2025.0,0.060474
2030.0,0.060102
2035.0,0.059889
2040.0,0.059498
2045.0,0.059286
2050.0,0.059025
2055.0,0.058671
2060.0,0.058232
2065.0,0.058008
2070.0,0.057914
2075.0,0.057735
2080.0,0.057508
2085.0,0.0573
2090.0,0.056888
2095.0,0.056718
2100.0,0.05707
2105.0,0.056845
2110.0,0.056598
2115.0,0.056533
2120.0,0.056467
2125.0,0.056276
2130.0,0.055913
2135.0,0.055787
2140.0,0.055734
2145.0,0.055789
2150.0,0.055544
2155.0,0.055578
2160.0,0.055359
2165.0,0.055425
2170.0,0.055193
2175.0,0.055248
2180.0,0.055271
2185.0,0.055134
2190.0,0.054898
2195.0,0.054814
2200.0,0.055028
2205.0,0.05512
2210.0,0.055122
2215.0,0.055029
2220.0,0.054863
2225.0,0.055012
2230.0,0.055127
2235.0,0.054941
2240.0,0.054921
2245.0,0.054987
2250.0,0.055132
2255.0,0.055034
2260.0,0.055255
2265.0,0.055125
2270.0,0.05521
2275.0,0.05527
2280.0,0.055497
2285.0,0.055393
2290.0,0.055337
2295.0,0.055298
2300.0,0.055492
2305.0,0.055429
2310.0,0.05541
2315.0,0.055242
2320.0,0.055225
2325.0,0.055421
2330.0,0.055339
2335.0,0.055583
2340.0,0.055411
2345.0,0.055741
2350.0,0.055573
2355.0,0.05564
2360.0,0.055736
2365.0,0.055884
2370.0,0.055795
2375.0,0.055882
2380.0,0.056048
2385.0,0.056068
2390.0,0.056208
2395.0,0.056481
2400.0,0.056557
2405.0,0.056618
2410.0,0.056843
2415.0,0.056831
2420.0,0.057199
2425.0,0.057506
2430.0,0.057632
2435.0,0.057602
2440.0,0.057949
2445.0,0.057917
2450.0,0.058167
2455.0,0.058223
2460.0,0.058335
2465.0,0.058576
2470.0,0.058535
2475.0,0.059005
2480.0,0.05894
2485.0,0.059011
2490.0,0.059402
2495.0,0.059428
2500.0,0.059509
2502.0,0.059623
2503.2,0.059607
2504.41,0.059623
2505.62,0.059751
2506.83,0.059856
2508.05,0.059719
2509.26,0.059647
2510.48,0.05945
2511.69,0.059662
2512.91,0.059764
2514.13,0.059738
2515.35,0.059665
2516.57,0.059823
2517.79,0.060173
2519.02,0.060192
2520.24,0.060072
2521.47,0.060255
2522.69,0.060297
2523.92,0.060215
2525.15,0.060074
2526.38,0.060181
2527.61,0.060213
2528.85,0.060067
2530.08,0.060072
2531.32,0.06018
2532.55,0.060068
2533.79,0.060137
2535.03,0.060279
2536.27,0.060372
2537.51,0.060411
2538.75,0.060284
2540.0,0.060231
2541.24,0.06019
2542.49,0.060352
2543.74,0.060614
2544.99,0.060688
2546.24,0.060693
2547.49,0.060558
2548.74,0.060628
2549.99,0.060544
2551.25,0.060536
2552.5,0.060681
2553.76,0.06078
2555.02,0.060925
2556.28,0.060957
2557.54,0.060914
2558.8,0.061055
2560.07,0.060878
2561.33,0.060667
2562.6,0.060683
2563.86,0.060958
2565.13,0.060949
2566.4,0.060957
2567.67,0.060887
2568.95,0.060789
2570.22,0.060917
2571.5,0.061079
2572.77,0.061319
2574.05,0.061435
2575.33,0.061396
2576.61,0.061291
2577.89,0.061244
2579.17,0.061346
2580.46,0.061274
2581.74,0.061317
2583.03,0.061453
2584.31,0.061283
2585.6,0.061128
2586.89,0.061327
2588.19,0.061236
2589.48,0.061411
2590.77,0.061639
2592.07,0.061633
2593.36,0.061516
2594.66,0.060928
2595.96,0.060343
2597.26,0.061298
2598.56,0.061944
2599.87,0.061874
2601.17,0.061506
2602.48,0.06164
2603.78,0.061829
2605.09,0.061865
2606.4,0.061817
2607.71,0.062028
2609.03,0.062078
2610.34,0.061862
2611.66,0.062018
2612.97,0.061992
2614.29,0.061605
2615.61,0.061624
2616.93,0.061572
2618.25,0.061635
2619.57,0.061992
2620.9,0.061931
2622.22,0.061884
2623.55,0.062155
2624.88,0.062134
2626.21,0.061995
2627.54,0.06185
2628.87,0.062029
2630.21,0.062015
2631.54,0.061753
2632.88,0.062141
2634.21,0.062408
2635.55,0.062242
2636.89,0.06233
2638.24,0.062369
2639.58,0.062318
2640.92,0.062333
2642.27,0.062219
2643.62,0.062209
2644.97,0.062248
2646.32,0.062246
2647.67,0.062425
2649.02,0.062467
2650.38,0.062492
2651.73,0.062363
2653.09,0.062127
2654.45,0.062115
2655.81,0.062203
2657.17,0.062064
2658.53,0.062137
2659.89,0.062035
2661.26,0.062123
2662.63,0.062209
2664.0,0.062236
2665.36,0.061809
2666.74,0.061589
2668.11,0.061895
2669.48,0.062041
2670.86,0.061476
2672.23,0.061457
2673.61,0.0622
2674.99,0.062391
2676.37,0.062144
2677.76,0.061574
2679.14,0.06156
2680.52,0.061888
2681.91,0.062105
2683.3,0.061763
2684.69,0.061413
2686.08,0.061381
2687.47,0.061129
2688.87,0.060962
2690.26,0.061063
2691.66,0.060927
2693.06,0.060579
2694.46,0.060076
2695.86,0.059818
2697.26,0.059471
2698.66,0.058639
2700.07,0.057248
2701.48,0.055109
2702.89,0.05319
2704.3,0.052294
2705.71,0.051595
2707.12,0.050146
2708.53,0.047948
2709.95,0.046094
2711.37,0.04525
2712.79,0.045097
2714.21,0.045044
2715.63,0.04506
2717.05,0.045397
2718.48,0.04616
2719.9,0.047338
2721.33,0.048494
2722.76,0.050034
2724.19,0.051335
2725.62,0.051917
2727.06,0.052531
2728.49,0.053274
2729.93,0.053807
2731.37,0.05398
2732.81,0.054151
2734.25,0.054209
2735.69,0.05391
2737.14,0.053918
2738.58,0.053867
2740.03,0.053523
2741.48,0.053388
2742.93,0.053455
2744.38,0.053765
2745.83,0.053997
2747.29,0.054244
2748.75,0.054656
2750.2,0.054955
2751.66,0.055262
2753.13,0.055598
2754.59,0.055942
2756.05,0.055718
2757.52,0.056176
2758.99,0.057064
2760.46,0.057307
2761.93,0.057329
2763.4,0.057208
2764.87,0.057177
2766.35,0.057481
2767.82,0.057498
2769.3,0.057537
2770.78,0.057401
2772.26,0.057419
2773.75,0.057954
2775.23,0.058047
2776.72,0.057952
2778.21,0.057828
2779.7,0.05795
2781.19,0.057843
2782.68,0.057707
2784.18,0.057793
2785.67,0.057867
2787.17,0.057778
2788.67,0.057726
2790.17,0.058013
2791.67,0.057971
2793.18,0.057779
2794.68,0.057621
2796.19,0.057476
2797.7,0.05744
2799.21,0.057348
2800.72,0.057269
2802.24,0.057082
2803.75,0.05678
2805.27,0.056599
2806.79,0.056662
2808.31,0.05678
2809.83,0.057006
2811.35,0.057082
2812.88,0.057204
2814.41,0.057285
2815.93,0.057318
2817.46,0.057451
2819.0,0.05745
2820.53,0.057821
2822.07,0.058019
2823.6,0.057943
2825.14,0.05789
2826.68,0.057863
2828.22,0.057988
2829.77,0.058112
2831.31,0.058145
2832.86,0.058203
2834.41,0.058348
2835.96,0.058352
2837.51,0.058462
2839.07,0.058708
2840.62,0.058634
2842.18,0.058603
2843.74,0.058598
2845.3,0.058597
2846.86,0.058899
2848.43,0.058949
2849.99,0.05877
2851.56,0.05874
2853.13,0.0587
2854.7,0.05898
2856.27,0.05934
2857.85,0.059225
2859.42,0.059202
2861.0,0.05919
2862.58,0.059188
2864.16,0.059012
2865.75,0.058872
2867.33,0.058969
2868.92,0.059074
2870.51,0.059163
2872.1,0.059122
2873.69,0.059383
2875.28,0.059738
2876.88,0.059473
2878.48,0.059179
2880.07,0.059078
2881.68,0.059205
2883.28,0.059607
2884.88,0.059894
2886.49,0.059716
2888.1,0.059464
2889.71,0.059426
2891.32,0.059412
2892.93,0.059321
2894.55,0.059337
2896.16,0.05924
2897.78,0.059151
2899.4,0.059231
2901.03,0.059273
2902.65,0.059263
2904.28,0.059283
2905.91,0.059326
2907.54,0.059356
2909.17,0.059496
2910.8,0.059843
2912.44,0.060046
2914.07,0.059793
2915.71,0.059655
2917.35,0.059586
2918.99,0.059303
2920.64,0.059379
2922.29,0.059467
2923.93,0.059483
2925.58,0.059321
2927.24,0.059299
2928.89,0.059375
2930.55,0.059647
2932.2,0.059779
2933.86,0.05965
2935.52,0.059607
2937.19,0.059528
2938.85,0.059575
2940.52,0.059901
2942.19,0.060156
2943.86,0.059779
2945.53,0.059426
2947.21,0.059517
2948.88,0.05999
2950.56,0.060172
2952.24,0.059592
2953.92,0.059313
2955.61,0.059407
2957.29,0.059398
2958.98,0.059484
2960.67,0.059419
2962.36,0.059382
2964.06,0.059426
2965.75,0.059431
2967.45,0.059705
2969.15,0.060147
2970.85,0.06012
2972.55,0.059744
2974.26,0.059591
2975.97,0.059694
2977.68,0.059608
2979.39,0.059388
2981.1,0.059327
2982.82,0.059471
2984.53,0.059828
2986.25,0.060023
2987.97,0.059719
2989.7,0.059611
2991.42,0.059677
2993.15,0.059868
2994.88,0.059997
2996.61,0.060167
2998.34,0.05991
3000.08,0.059635
3001.82,0.0597
3003.55,0.059694
3005.3,0.059549
3007.04,0.059756
3008.78,0.059862
3010.53,0.059638
3012.28,0.059506
3014.03,0.059706
3015.79,0.05984
3017.54,0.059772
3019.3,0.059871
3021.06,0.05999
3022.82,0.06017
3024.58,0.060478
3026.35,0.060629
3028.12,0.060419
3029.89,0.060067
3031.66,0.059907
3033.43,0.059999
3035.21,0.060241
3036.99,0.060419
3038.77,0.060477
3040.55,0.06034
3042.33,0.060152
3044.12,0.060068
3045.91,0.060111
3047.7,0.060159
3049.49,0.060153
3051.29,0.060152
3053.08,0.060223
3054.88,0.060365
3056.68,0.060498
3058.49,0.060805
3060.29,0.060716
3062.1,0.060427
3063.91,0.060314
3065.72,0.060301
3067.54,0.060284
3069.35,0.060316
3071.17,0.060495
3072.99,0.060542
3074.81,0.060444
3076.64,0.060373
3078.47,0.060451
3080.29,0.060643
3082.13,0.060814
3083.96,0.060669
3085.79,0.060529
3087.63,0.060504
3089.47,0.060573
3091.31,0.060616
3093.16,0.060899
3095.01,0.06104
3096.85,0.060884
3098.71,0.060743
3100.56,0.06078
3102.41,0.060773
3104.27,0.060806
3106.13,0.060966
3107.99,0.061032
3109.86,0.060877
3111.73,0.060956
3113.59,0.061037
3115.47,0.061042
3117.34,0.061023
3119.21,0.06101
3121.09,0.061084
3122.97,0.061178
3124.86,0.061177
3126.74,0.061304
3128.63,0.061305
3130.52,0.061213
3132.41,0.061193
3134.3,0.061304
3136.2,0.061406
3138.1,0.061372
3140.0,0.061361
3141.9,0.061536
3143.81,0.061554
3145.71,0.061557
3147.62,0.061705
3149.54,0.061873
3151.45,0.061954
3153.37,0.061988
3155.29,0.061901
3157.21,0.061909
3159.13,0.061923
3161.06,0.061923
3162.99,0.062062
3164.92,0.062148
3166.85,0.062263
3168.79,0.062305
3170.72,0.062358
3172.67,0.062665
3174.61,0.062865
3176.55,0.062675
3178.5,0.062535
3180.45,0.0626
3182.4,0.062761
3184.36,0.062951
3186.32,0.063164
3188.27,0.063215
3190.24,0.063132
3192.2,0.063196
3194.17,0.063174
3196.14,0.063323
3198.11,0.063443
3200.08,0.063424
3202.06,0.063446
3204.04,0.063679
3206.02,0.064107
3208.0,0.064379
3209.99,0.06455
3211.98,0.064411
3213.97,0.064054
3215.96,0.064191
3217.96,0.064459
3219.96,0.064216
3221.96,0.064082
3223.96,0.064204
3225.97,0.064416
3227.98,0.064593
3229.99,0.064507
3232.0,0.064503
3234.02,0.064714
3236.04,0.064897
3238.06,0.065
3240.08,0.06515
3242.11,0.065359
3244.14,0.065605
3246.17,0.065588
3248.2,0.065769
3250.24,0.066001
3252.28,0.065876
3254.32,0.065638
3256.37,0.065651
3258.41,0.065765
3260.46,0.066054
3262.51,0.066243
3264.57,0.066215
3266.63,0.066213
3268.69,0.066259
3270.75,0.066437
3272.81,0.066641
3274.88,0.066781
3276.95,0.066969
3279.02,0.067163
3281.1,0.067192
3283.18,0.067156
3285.26,0.067255
3287.34,0.067508
3289.43,0.067801
3291.51,0.067676
3293.61,0.067603
3295.7,0.067954
3297.8,0.068218
3299.9,0.068229
3302.0,0.068252
3304.1,0.068252
3306.21,0.068491
3308.32,0.068745
3310.43,0.068794
3312.55,0.068907
3314.66,0.0691
3316.79,0.069354
3318.91,0.069663
3321.03,0.069863
3323.16,0.069858
3325.29,0.069762
3327.43,0.06983
3329.57,0.069908
3331.71,0.070022
3333.85,0.07014
3335.99,0.070298
3338.14,0.070479
3340.29,0.07064
3342.45,0.070805
3344.6,0.070893
3346.76,0.07095
3348.92,0.071104
3351.09,0.071229
3353.26,0.071456
3355.43,0.071755
3357.6,0.07188
3359.78,0.071851
3361.96,0.071942
3364.14,0.072146
3366.32,0.072303
3368.51,0.072261
3370.7,0.07229
3372.89,0.072387
3375.09,0.072639
3377.29,0.072775
3379.49,0.072958
3381.69,0.07313
3383.9,0.073224
3386.11,0.07336
3388.32,0.073626
3390.54,0.07375
3392.76,0.073913
3394.98,0.074268
3397.21,0.074412
3399.43,0.074348
3401.66,0.074354
3403.9,0.074421
3406.13,0.074565
3408.37,0.074638
3410.61,0.074761
3412.86,0.075071
3415.11,0.075293
3417.36,0.075306
3419.61,0.075417
3421.87,0.075675
3424.13,0.075953
3426.39,0.076212
3428.66,0.0766
3430.93,0.076887
3433.2,0.077308
3435.48,0.077613
3437.76,0.077684
3440.04,0.077712
3442.32,0.0779
3444.61,0.078147
3446.9,0.078415
3449.19,0.078701
3451.49,0.078961
3453.79,0.079211
3456.09,0.079457
3458.4,0.079671
3460.7,0.079834
3463.02,0.080024
3465.33,0.08027
3467.65,0.080477
3469.97,0.080741
3472.29,0.080948
3474.62,0.081211
3476.95,0.081423
3479.29,0.081701
3481.62,0.082119
3483.96,0.082342
3486.3,0.082411
3488.65,0.082615
3491.0,0.082803
3493.35,0.082984
3495.71,0.083269
3498.07,0.08362
3500.43,0.083755
3502.79,0.083931
3505.16,0.084193
3507.53,0.084474
3509.91,0.084776
3512.29,0.085144
3514.67,0.085413
3517.05,0.085709
3519.44,0.086015
3521.83,0.086459
3524.23,0.086962
3526.62,0.087203
3529.02,0.087381
3531.43,0.087758
3533.83,0.088002
3536.24,0.088296
3538.66,0.088628
3541.08,0.088881
3543.5,0.089097
3545.92,0.089413
3548.35,0.08972
3550.78,0.089999
3553.21,0.090259
3555.65,0.090626
3558.09,0.090902
3560.53,0.091206
3562.98,0.091523
3565.43,0.091747
3567.88,0.092022
3570.34,0.092362
3572.8,0.092693
3575.27,0.093115
3577.73,0.093376
3580.2,0.093642
3582.68,0.093968
3585.16,0.09426
3587.64,0.094574
3590.12,0.094932
3592.61,0.095282
3595.1,0.095566
3597.6,0.095804
3600.09,0.096111
3602.6,0.096503
3605.1,0.096864
3607.61,0.09713
3610.12,0.097385
3612.64,0.097661
3615.16,0.098049
3617.68,0.098426
3620.21,0.09868
3622.74,0.098928
3625.27,0.09927
3627.81,0.099643
3630.35,0.10009
3632.89,0.100489
3635.44,0.100848
3637.99,0.101226
3640.54,0.101612
3643.1,0.101868
3645.66,0.102085
3648.23,0.102429
3650.8,0.102871
3653.37,0.103228
3655.95,0.10368
3658.53,0.104036
3661.11,0.104342
3663.7,0.104658
3666.29,0.104994
3668.89,0.105403
3671.48,0.105864
3674.09,0.10619
3676.69,0.106484
3679.3,0.106838
3681.91,0.107301
3684.53,0.107647
3687.15,0.107979
3689.78,0.108363
3692.4,0.108849
3695.04,0.109238
3697.67,0.109659
3700.31,0.109992
3702.95,0.110309
3705.6,0.110667
3708.25,0.111081
3710.91,0.11147
3713.56,0.111891
3716.23,0.112322
3718.89,0.112745
3721.56,0.113115
3724.23,0.113538
3726.91,0.11393
3729.59,0.114358
3732.28,0.114776
3734.97,0.115168
3737.66,0.115607
3740.36,0.116009
3743.06,0.116423
3745.76,0.116853
3748.47,0.117269
3751.18,0.117696
