Database of Origin,University of Winnipeg Spectrophotometer Facility
Sample Description,Carbonaceous chondrites - RELAB archive 2. CM chondrites
Date Added,2018-07-23 23:44:50.697887

Data ID,RLA_MET_33_72       
Sample ID,QUE97077
Mineral Name,CM Chondrite
Grain Size,<75
Viewing Geometry,30/0
Material Class,CM2

Wavelength
305.0,0.02342
310.0,0.02416
315.0,0.02414
320.0,0.024
325.0,0.02445
330.0,0.02449
335.0,0.02528
340.0,0.02621
345.0,0.02717
350.0,0.02773
355.0,0.02878
360.0,0.02928
365.0,0.02996
370.0,0.03073
375.0,0.03179
380.0,0.0325
385.0,0.03333
390.0,0.03433
395.0,0.03524
400.0,0.03567
405.0,0.03639
410.0,0.03701
415.0,0.03789
420.0,0.03864
425.0,0.03949
430.0,0.04019
435.0,0.04094
440.0,0.04158
445.0,0.04217
450.0,0.04271
455.0,0.04318
460.0,0.04363
465.0,0.0442
470.0,0.04467
475.0,0.04526
480.0,0.04585
485.0,0.04637
490.0,0.0469
495.0,0.04739
500.0,0.04775
505.0,0.04833
510.0,0.04877
515.0,0.04916
520.0,0.04954
525.0,0.04975
530.0,0.05014
535.0,0.05039
540.0,0.05066
545.0,0.05082
550.0,0.05104
555.0,0.05114
560.0,0.05126
565.0,0.05133
570.0,0.05137
575.0,0.05139
580.0,0.05139
585.0,0.05137
590.0,0.05132
595.0,0.05127
600.0,0.05126
605.0,0.05126
610.0,0.05118
615.0,0.05113
620.0,0.05111
625.0,0.05105
630.0,0.05094
635.0,0.05092
640.0,0.05078
645.0,0.05073
650.0,0.05064
655.0,0.05054
660.0,0.05041
665.0,0.05031
670.0,0.05021
675.0,0.05013
680.0,0.05005
685.0,0.04994
690.0,0.0499
695.0,0.04982
700.0,0.04986
705.0,0.04982
710.0,0.04983
715.0,0.04985
720.0,0.04984
725.0,0.04971
730.0,0.04978
735.0,0.04979
740.0,0.04987
745.0,0.04991
750.0,0.05001
755.0,0.05015
760.0,0.05027
765.0,0.05039
770.0,0.05053
775.0,0.05067
780.0,0.05079
785.0,0.05102
790.0,0.05115
795.0,0.05139
800.0,0.05169
805.0,0.05186
810.0,0.05197
815.0,0.05208
820.0,0.05218
825.0,0.0523
830.0,0.05253
835.0,0.05265
840.0,0.05283
845.0,0.05292
850.0,0.05307
855.0,0.05297
860.0,0.05303
865.0,0.05314
870.0,0.05318
875.0,0.05312
880.0,0.05319
885.0,0.05319
890.0,0.05318
895.0,0.0532
900.0,0.0533
905.0,0.05334
910.0,0.0534
915.0,0.05347
920.0,0.05353
925.0,0.05363
930.0,0.05366
935.0,0.05373
940.0,0.05381
945.0,0.0539
950.0,0.05397
955.0,0.05409
960.0,0.05421
965.0,0.05432
970.0,0.05441
975.0,0.0545
980.0,0.05464
985.0,0.05471
990.0,0.05485
995.0,0.05498
1000.0,0.0551
1005.0,0.05517
1010.0,0.05527
1015.0,0.05535
1020.0,0.0554
1025.0,0.05542
1030.0,0.05552
1035.0,0.05567
1040.0,0.05574
1045.0,0.05581
1050.0,0.05587
1055.0,0.05591
1060.0,0.05593
1065.0,0.05598
1070.0,0.05606
1075.0,0.05613
1080.0,0.05622
1085.0,0.05628
1090.0,0.05628
1095.0,0.05636
1100.0,0.05646
1105.0,0.05644
1110.0,0.05647
1115.0,0.05655
1120.0,0.05657
1125.0,0.05662
1130.0,0.05676
1135.0,0.05684
1140.0,0.05694
1145.0,0.05704
1150.0,0.05712
1155.0,0.05721
1160.0,0.05737
1165.0,0.05749
1170.0,0.05761
1175.0,0.05772
1180.0,0.05786
1185.0,0.05795
1190.0,0.05806
1195.0,0.05816
1200.0,0.05828
1205.0,0.05839
1210.0,0.05856
1215.0,0.05867
1220.0,0.0588
1225.0,0.05893
1230.0,0.05901
1235.0,0.05908
1240.0,0.05919
1245.0,0.05928
1250.0,0.05941
1255.0,0.0595
1260.0,0.05955
1265.0,0.05971
1270.0,0.05982
1275.0,0.05991
1280.0,0.06
1285.0,0.06018
1290.0,0.06028
1295.0,0.06039
1300.0,0.0605
1305.0,0.06065
1310.0,0.06076
1315.0,0.06089
1320.0,0.06103
1325.0,0.06114
1330.0,0.06127
1335.0,0.06137
1340.0,0.06149
1345.0,0.06154
1350.0,0.0616
1355.0,0.06172
1360.0,0.06186
1365.0,0.06201
1370.0,0.06216
1375.0,0.0623
1380.0,0.06239
1385.0,0.06249
1390.0,0.06254
1395.0,0.06257
1400.0,0.06261
1405.0,0.06271
1410.0,0.06281
1415.0,0.06293
1420.0,0.0631
1425.0,0.06322
1430.0,0.06336
1435.0,0.06351
1440.0,0.06363
1445.0,0.06372
1450.0,0.06379
1455.0,0.0639
1460.0,0.064
1465.0,0.06414
1470.0,0.06424
1475.0,0.06435
1480.0,0.06442
1485.0,0.06452
1490.0,0.06455
1495.0,0.0646
1500.0,0.06467
1505.0,0.06478
1510.0,0.06483
1515.0,0.0649
1520.0,0.065
1525.0,0.06503
1530.0,0.06509
1535.0,0.06518
1540.0,0.06526
1545.0,0.06532
1550.0,0.06544
1555.0,0.06558
1560.0,0.06565
1565.0,0.06576
1570.0,0.06583
1575.0,0.06588
1580.0,0.06588
1585.0,0.06599
1590.0,0.06608
1595.0,0.06615
1600.0,0.06627
1605.0,0.06638
1610.0,0.06643
1615.0,0.06649
1620.0,0.06655
1625.0,0.06658
1630.0,0.06657
1635.0,0.06664
1640.0,0.06669
1645.0,0.06677
1650.0,0.06678
1655.0,0.06692
1660.0,0.06691
1665.0,0.06697
1670.0,0.06704
1675.0,0.06716
1680.0,0.06715
1685.0,0.06727
1690.0,0.06735
1695.0,0.06742
1700.0,0.06754
1705.0,0.06764
1710.0,0.06776
1715.0,0.06784
1720.0,0.06791
1725.0,0.06797
1730.0,0.06797
1735.0,0.06805
1740.0,0.06804
1745.0,0.06805
1750.0,0.06808
1755.0,0.06809
1760.0,0.06807
1765.0,0.06804
1770.0,0.06804
1775.0,0.06802
1780.0,0.06807
1785.0,0.06811
1790.0,0.06818
1795.0,0.06821
1800.0,0.06825
1805.0,0.0682
1810.0,0.06815
1815.0,0.06817
1820.0,0.06813
1825.0,0.06812
1830.0,0.06821
1835.0,0.06832
1840.0,0.06837
1845.0,0.06852
1850.0,0.06866
1855.0,0.06872
1860.0,0.06851
1865.0,0.06867
1870.0,0.06886
1875.0,0.06885
1880.0,0.0689
1885.0,0.06892
1890.0,0.06886
1895.0,0.06882
1900.0,0.06874
1905.0,0.06875
1910.0,0.06874
1915.0,0.06879
1920.0,0.06883
1925.0,0.06874
1930.0,0.06872
1935.0,0.06876
1940.0,0.06874
1945.0,0.06875
1950.0,0.06883
1955.0,0.06886
1960.0,0.06896
1965.0,0.06894
1970.0,0.06904
1975.0,0.06903
1980.0,0.06911
1985.0,0.06903
1990.0,0.06908
1995.0,0.0691
2000.0,0.06913
2005.0,0.06915
2010.0,0.06927
2015.0,0.06928
2020.0,0.06935
2025.0,0.06936
2030.0,0.06944
2035.0,0.06945
2040.0,0.06948
2045.0,0.06949
2050.0,0.06956
2055.0,0.06952
2060.0,0.06949
2065.0,0.0696
2070.0,0.06959
2075.0,0.06961
2080.0,0.06968
2085.0,0.06971
2090.0,0.06971
2095.0,0.06981
2100.0,0.06983
2105.0,0.06988
2110.0,0.06998
2115.0,0.07003
2120.0,0.07
2125.0,0.07003
2130.0,0.07002
2135.0,0.07001
2140.0,0.07
2145.0,0.07003
2150.0,0.07002
2155.0,0.07009
2160.0,0.07012
2165.0,0.0702
2170.0,0.07024
2175.0,0.07026
2180.0,0.07024
2185.0,0.07025
2190.0,0.0702
2195.0,0.07012
2200.0,0.0701
2205.0,0.07011
2210.0,0.07011
2215.0,0.07016
2220.0,0.07022
2225.0,0.07026
2230.0,0.07033
2235.0,0.0704
2240.0,0.07038
2245.0,0.07043
2250.0,0.07048
2255.0,0.07041
2260.0,0.07036
2265.0,0.07032
2270.0,0.07028
2275.0,0.07024
2280.0,0.07028
2285.0,0.07021
2290.0,0.07026
2295.0,0.07025
2300.0,0.07024
2305.0,0.07021
2310.0,0.07026
2315.0,0.07019
2320.0,0.07016
2325.0,0.07014
2330.0,0.07006
2335.0,0.0701
2340.0,0.07013
2345.0,0.07018
2350.0,0.07016
2355.0,0.07022
2360.0,0.07015
2365.0,0.07024
2370.0,0.07025
2375.0,0.07031
2380.0,0.07035
2385.0,0.07036
2390.0,0.07032
2395.0,0.0703
2400.0,0.07026
2405.0,0.07018
2410.0,0.07024
2415.0,0.07026
2420.0,0.07022
2425.0,0.07018
2430.0,0.07029
2435.0,0.07017
2440.0,0.07007
2445.0,0.07011
2450.0,0.07009
2455.0,0.07006
2460.0,0.07007
2465.0,0.07006
2470.0,0.07005
2475.0,0.06997
2480.0,0.06995
2485.0,0.06983
2490.0,0.06978
2495.0,0.06958
2500.0,0.06956
2505.0,0.06929
2510.0,0.06923
2515.0,0.06902
2520.0,0.06891
2525.0,0.06875
2530.0,0.06886
2535.0,0.06864
2540.0,0.06875
2545.0,0.06907
2550.0,0.06861
2555.0,0.06874
2560.0,0.06901
2565.0,0.06891
2570.0,0.06884
2575.0,0.06884
2580.0,0.06901
2585.0,0.06844
2590.0,0.06914
2595.0,0.06971
2600.0,0.07036
