Database of Origin,University of Winnipeg Spectrophotometer Facility
Sample Description,Carbonates and Oxolates - RELAB+Nicolet spectra Newly merged spectra (merged by RELAB)
Other Information,dry seived
Date Added,2018-08-06 20:49:03.472606

Data ID,RLA_CARB_1_58       
Sample ID,CRB218
Mineral Name,Artinite
Locality,Rocca di Castellaccio/ Torre di Santa Maria/ Valmalenco/ Sondrio/ Italy
Grain Size,45-90 um
Viewing Geometry,30/0/30
Resolution,5/ 0.6-129 nm
Formula,Mg2(CO3)(OH)2*3(H2O)
Composition,Powdered sample provided.

Wavelength
305.0,0.546997
310.0,0.558964
315.0,0.56954
320.0,0.580509
325.0,0.587026
330.0,0.59507
335.0,0.601463
340.0,0.610479
345.0,0.615967
350.0,0.626373
355.0,0.631185
360.0,0.639318
365.0,0.643128
370.0,0.650189
375.0,0.652756
380.0,0.654677
385.0,0.659146
390.0,0.667325
395.0,0.670779
400.0,0.672064
405.0,0.675921
410.0,0.681297
415.0,0.681771
420.0,0.685266
425.0,0.689511
430.0,0.688026
435.0,0.692728
440.0,0.699557
445.0,0.702603
450.0,0.701068
455.0,0.706177
460.0,0.707132
465.0,0.709446
470.0,0.712565
475.0,0.715855
480.0,0.716812
485.0,0.720648
490.0,0.723042
495.0,0.726849
500.0,0.727256
505.0,0.729711
510.0,0.733779
515.0,0.736228
520.0,0.737352
525.0,0.740245
530.0,0.741153
535.0,0.743361
540.0,0.748443
545.0,0.750868
550.0,0.749999
555.0,0.751553
560.0,0.752588
565.0,0.753477
570.0,0.756977
575.0,0.758518
580.0,0.757343
585.0,0.758927
590.0,0.762247
595.0,0.763903
600.0,0.765552
605.0,0.76654
610.0,0.765056
615.0,0.765763
620.0,0.767005
625.0,0.766403
630.0,0.766805
635.0,0.765834
640.0,0.763906
645.0,0.763468
650.0,0.766356
655.0,0.767241
660.0,0.767644
665.0,0.769643
670.0,0.769776
675.0,0.770058
680.0,0.766668
685.0,0.768153
690.0,0.768339
695.0,0.770738
700.0,0.769146
705.0,0.771215
710.0,0.769093
715.0,0.772474
720.0,0.771298
725.0,0.767052
730.0,0.768508
735.0,0.769546
740.0,0.769028
745.0,0.767739
750.0,0.769208
755.0,0.769459
760.0,0.770763
765.0,0.770331
770.0,0.770384
775.0,0.76983
780.0,0.771219
785.0,0.771709
790.0,0.772173
795.0,0.771054
800.0,0.7699
805.0,0.769682
810.0,0.773072
815.0,0.772753
820.0,0.772515
825.0,0.771644
830.0,0.773
835.0,0.772434
840.0,0.772645
845.0,0.77289
850.0,0.772268
855.0,0.776261
860.0,0.773976
865.0,0.774406
870.0,0.772475
875.0,0.775618
880.0,0.774948
885.0,0.776229
890.0,0.775395
895.0,0.776477
900.0,0.773298
905.0,0.774603
910.0,0.775509
915.0,0.774636
920.0,0.776351
925.0,0.777026
930.0,0.773642
935.0,0.774677
940.0,0.773984
945.0,0.771828
950.0,0.774872
955.0,0.770966
960.0,0.770669
965.0,0.767959
970.0,0.768611
975.0,0.767775
980.0,0.769923
985.0,0.769758
990.0,0.775413
995.0,0.773508
1000.0,0.774701
1005.0,0.771563
1010.0,0.775568
1015.0,0.771891
1020.0,0.774535
1025.0,0.772697
1030.0,0.775774
1035.0,0.774284
1040.0,0.772739
1045.0,0.772076
1050.0,0.770954
1055.0,0.771491
1060.0,0.772094
1065.0,0.77204
1070.0,0.7697
1075.0,0.769785
1080.0,0.769647
1085.0,0.770355
1090.0,0.766959
1095.0,0.766858
1100.0,0.765678
1105.0,0.765337
1110.0,0.764605
1115.0,0.765172
1120.0,0.765795
1125.0,0.767911
1130.0,0.766917
1135.0,0.76537
1140.0,0.762999
1145.0,0.762137
1150.0,0.765882
1155.0,0.764264
1160.0,0.761975
1165.0,0.761212
1170.0,0.760886
1175.0,0.759754
1180.0,0.758912
1185.0,0.757888
1190.0,0.755464
1195.0,0.755827
1200.0,0.75858
1205.0,0.757527
1210.0,0.757437
1215.0,0.759353
1220.0,0.755315
1225.0,0.753696
1230.0,0.752395
1235.0,0.752304
1240.0,0.751294
1245.0,0.749123
1250.0,0.745155
1255.0,0.743086
1260.0,0.740205
1265.0,0.738927
1270.0,0.741912
1275.0,0.739057
1280.0,0.732992
1285.0,0.729242
1290.0,0.7268
1295.0,0.727587
1300.0,0.730462
1305.0,0.732695
1310.0,0.732698
1315.0,0.732681
1320.0,0.732749
1325.0,0.731905
1330.0,0.732794
1335.0,0.73102
1340.0,0.729782
1345.0,0.72828
1350.0,0.727665
1355.0,0.726643
1360.0,0.72503
1365.0,0.722759
1370.0,0.719673
1375.0,0.715135
1380.0,0.708049
1385.0,0.701865
1420.0,0.651471
1425.0,0.62769
1430.0,0.591885
1435.0,0.632018
1440.0,0.659935
1445.0,0.66726
1450.0,0.671127
1455.0,0.67133
1460.0,0.671536
1465.0,0.670287
1470.0,0.667814
1475.0,0.664953
1480.0,0.661749
1485.0,0.658067
1490.0,0.654324
1495.0,0.649718
1500.0,0.644612
1505.0,0.639241
1510.0,0.634592
1515.0,0.629142
1520.0,0.624068
1525.0,0.620647
1530.0,0.615864
1535.0,0.61177
1540.0,0.605917
1545.0,0.600604
1550.0,0.593871
1555.0,0.588018
1560.0,0.581838
1565.0,0.57426
1570.0,0.567941
1575.0,0.561678
1580.0,0.555758
1585.0,0.548765
1590.0,0.543207
1595.0,0.537981
1600.0,0.533002
1605.0,0.528371
1610.0,0.523963
1615.0,0.51946
1620.0,0.515573
1625.0,0.511223
1630.0,0.507383
1635.0,0.503492
1640.0,0.500495
1645.0,0.496746
1650.0,0.492715
1655.0,0.488859
1660.0,0.48478
1665.0,0.481592
1670.0,0.477607
1675.0,0.473463
1680.0,0.470328
1685.0,0.466617
1690.0,0.463718
1695.0,0.460325
1700.0,0.457577
1705.31,0.454656
1709.81,0.452512
1715.46,0.449667
1720.02,0.447261
1724.6,0.444861
1730.35,0.441602
1734.98,0.439103
1739.64,0.436484
1745.5,0.432942
1750.21,0.43051
1754.95,0.42784
1759.72,0.42532
1764.51,0.423048
1770.54,0.419961
1775.39,0.417581
1780.27,0.415462
1785.17,0.41333
1790.1,0.41115
1795.06,0.409265
1800.05,0.407169
1805.06,0.405345
1810.1,0.403368
1815.17,0.401529
1820.27,0.399803
1825.4,0.398045
1830.56,0.396328
1834.44,0.39515
1839.65,0.393309
1844.89,0.391302
1850.16,0.389411
1855.45,0.387402
1859.45,0.385639
1864.8,0.383846
1870.18,0.381633
1875.59,0.379495
1879.67,0.377687
1885.14,0.375399
1890.64,0.373292
1894.79,0.371426
1900.34,0.368789
1904.53,0.36667
1910.15,0.363871
1914.38,0.36181
1920.05,0.358797
1924.33,0.356507
1930.06,0.353571
1934.38,0.351834
1940.17,0.349228
1944.54,0.347605
1950.39,0.344981
1954.8,0.342782
1960.72,0.34001
1965.18,0.337621
1969.66,0.335235
1975.66,0.33147
1980.19,0.328604
1984.74,0.326007
1989.31,0.323717
1995.43,0.321772
2000.05,0.320673
2004.69,0.319707
2009.35,0.319289
2015.6,0.318961
2020.32,0.319102
2025.05,0.318676
2029.81,0.318171
2034.59,0.317275
2039.39,0.31575
2044.22,0.313811
2050.69,0.310769
2055.57,0.30816
2060.47,0.305687
2065.39,0.302894
2070.34,0.300255
2075.31,0.297556
2080.31,0.295025
2085.33,0.292623
2090.38,0.290314
2095.45,0.288436
2100.54,0.286846
2105.66,0.285643
2110.8,0.284706
2114.25,0.284201
2119.43,0.28332
2124.65,0.28247
2129.88,0.281342
2135.15,0.28071
2140.44,0.279623
2145.75,0.278667
2149.31,0.278171
2154.67,0.277117
2160.06,0.276463
2165.47,0.276137
2170.91,0.276051
2174.55,0.276182
2180.04,0.276619
2185.55,0.276806
2189.25,0.277086
2194.81,0.277406
2200.4,0.277063
2204.14,0.276652
2209.78,0.275449
2215.44,0.274119
2219.24,0.272833
2224.95,0.271725
2230.7,0.270742
2234.54,0.270175
2240.33,0.269194
2244.21,0.268136
2250.06,0.265529
2255.93,0.261915
2259.87,0.258615
2265.79,0.25137
2269.76,0.24412
2275.74,0.230468
2279.74,0.225971
2285.77,0.230727
2289.81,0.235835
2295.9,0.239486
2299.97,0.239577
2304.06,0.23836
2310.22,0.234528
2314.35,0.233275
2320.56,0.23688
2324.72,0.24129
2331.0,0.246711
2335.2,0.249747
2339.41,0.252126
2345.76,0.254649
2350.02,0.255474
2354.28,0.255355
2360.72,0.254809
2365.03,0.254536
2369.35,0.254345
2375.86,0.253421
2380.23,0.252537
2384.61,0.251492
2389.0,0.250418
2395.63,0.248911
2400.06,0.247392
2404.52,0.246094
2408.98,0.244781
2415.72,0.242507
2420.23,0.240801
2424.76,0.238755
2429.3,0.236346
2433.87,0.234042
2440.74,0.230921
2445.35,0.229125
2449.97,0.226783
2454.61,0.223687
2459.27,0.220009
2463.94,0.216022
2470.99,0.210027
2475.71,0.205819
2480.45,0.202731
2485.2,0.202495
2489.98,0.204265
2494.77,0.205848
2499.58,0.206738
2504.41,0.207253
2509.26,0.207532
2514.13,0.207276
2519.02,0.20664
2523.92,0.204805
2528.85,0.202644
2533.79,0.200178
2541.24,0.195774
2543.74,0.19458
2548.74,0.192635
2553.76,0.19118
2556.28,0.190609
2558.8,0.189917
2561.33,0.18946
2563.86,0.18916
2566.4,0.188884
2568.95,0.188707
2571.5,0.18852
2574.05,0.188284
2576.61,0.187953
2579.17,0.187473
2581.74,0.186925
2584.31,0.186243
2586.89,0.185416
2589.48,0.184431
2592.07,0.183573
2594.66,0.182729
2597.26,0.181819
2599.87,0.18077
2602.48,0.179691
2605.09,0.178713
2607.71,0.177748
2610.34,0.176867
2612.97,0.176074
2615.61,0.175303
2618.25,0.174694
2620.9,0.174075
2623.55,0.173243
2626.21,0.172371
2628.87,0.171496
2631.54,0.170409
2634.22,0.169237
2636.89,0.167808
2639.58,0.166201
2642.27,0.164331
2644.97,0.162299
2647.67,0.160421
2650.38,0.158669
2653.09,0.157115
2655.81,0.155768
2658.53,0.154559
2661.26,0.153539
2664.0,0.152537
2666.74,0.151392
2669.48,0.149665
2672.23,0.147485
2674.99,0.14489
2677.76,0.142023
2680.52,0.138417
2683.3,0.134116
2686.08,0.129561
2688.87,0.125191
2691.66,0.121281
2694.46,0.117601
2697.26,0.113817
2700.07,0.109416
2702.89,0.104173
2705.71,0.099267
2708.53,0.096653
2711.37,0.094928
2714.21,0.092688
2717.05,0.089873
2719.9,0.087078
2722.76,0.084659
2725.62,0.082238
2728.49,0.079815
2731.37,0.077449
2734.25,0.075705
2737.14,0.073991
2740.03,0.072061
2742.93,0.07003
2745.83,0.06757
2748.75,0.064613
2751.66,0.060534
2754.59,0.056341
2757.52,0.054126
2760.46,0.052347
2763.4,0.051522
2766.35,0.05791
2769.3,0.071766
2772.26,0.082519
2775.23,0.084509
2778.21,0.080181
2781.19,0.071527
2784.18,0.062947
2787.17,0.057274
2790.17,0.054392
2793.18,0.053314
2796.19,0.052339
2799.21,0.051639
2802.24,0.052189
2805.27,0.052933
2808.31,0.052908
2811.35,0.052601
2814.41,0.052129
2817.46,0.051562
2820.53,0.050835
2823.6,0.049804
2826.68,0.048634
2829.77,0.047435
2832.86,0.046286
2835.96,0.045162
2839.07,0.044185
2842.18,0.04315
2845.3,0.04187
2848.43,0.0408
2851.56,0.039928
2854.7,0.039225
2857.85,0.038492
2861.0,0.037839
2864.16,0.037278
2867.33,0.03657
2870.51,0.035921
2873.69,0.035402
2876.88,0.034955
2880.07,0.034435
2883.28,0.034088
2886.49,0.0337
2889.71,0.033255
2892.93,0.032698
2896.17,0.032437
2899.4,0.031998
2902.65,0.031555
2905.91,0.031171
2909.17,0.030807
2912.44,0.030388
2915.71,0.030047
2918.99,0.029725
2922.29,0.029345
2925.58,0.028788
2928.89,0.028335
2932.2,0.028146
2935.52,0.028071
2938.85,0.02795
2942.19,0.027537
2945.53,0.026988
2948.88,0.026787
2952.24,0.02672
2955.61,0.02651
2958.98,0.026267
2962.36,0.026194
2965.75,0.026242
2969.15,0.026018
2972.55,0.025798
2975.97,0.025629
2979.39,0.02548
2986.25,0.025253
2989.7,0.02502
2993.15,0.024833
2996.61,0.024601
3000.08,0.024484
3003.55,0.024667
3007.04,0.024675
3010.53,0.024833
3014.03,0.024703
3017.54,0.024395
3021.06,0.024249
3024.58,0.024549
3028.12,0.024808
3031.66,0.024729
3035.21,0.024621
3038.77,0.024619
3042.33,0.024626
3045.91,0.024767
3049.49,0.025041
3053.08,0.025118
3056.68,0.025124
3060.29,0.025372
3063.91,0.025397
3067.54,0.025521
3071.17,0.025702
3074.81,0.025783
3078.47,0.02597
3082.13,0.026194
3085.79,0.026211
3089.47,0.026342
3093.16,0.02666
3096.85,0.027026
3100.56,0.027213
3104.27,0.027624
3107.99,0.027813
3111.73,0.028018
3115.47,0.027954
3119.21,0.028511
3122.97,0.028489
3126.74,0.028646
3130.52,0.028892
3134.3,0.029436
3138.1,0.029382
3141.9,0.029611
3145.71,0.029849
3149.54,0.030373
3153.37,0.030654
3157.21,0.03113
3161.06,0.031305
3164.92,0.031381
3168.79,0.031694
3172.67,0.032161
3176.55,0.032107
3180.45,0.032016
3184.36,0.03257
3188.27,0.032769
3192.2,0.033037
3196.14,0.033445
3200.08,0.033431
3204.04,0.033666
3208.0,0.034072
3211.98,0.034563
3215.96,0.034434
3219.96,0.034362
3223.96,0.035105
3227.98,0.03541
3232.0,0.035719
3236.04,0.0359
3240.08,0.036279
3244.14,0.036696
3248.2,0.036993
3252.28,0.037476
3256.37,0.037739
3260.46,0.038339
3264.57,0.038674
3268.69,0.038598
3272.81,0.039132
3276.95,0.039849
3281.1,0.040047
3285.26,0.04067
3289.43,0.041251
3293.61,0.041747
3297.8,0.042037
3302.0,0.042873
3306.21,0.04336
3310.43,0.04389
3314.66,0.044184
3318.91,0.044394
3323.16,0.044888
3327.43,0.045321
3331.71,0.045874
3335.99,0.0461
3340.29,0.046274
3344.6,0.046425
3348.92,0.046707
3353.26,0.046985
3357.6,0.047157
3361.96,0.047091
3366.32,0.047361
3370.7,0.047371
3375.09,0.047617
3379.49,0.047696
3383.9,0.048002
3388.32,0.047578
3392.76,0.047659
3397.21,0.04807
3401.66,0.048085
3406.13,0.048094
3410.61,0.048183
3415.11,0.048398
3419.61,0.048548
3424.13,0.048627
3428.66,0.04853
3433.2,0.048748
3437.76,0.048581
3442.32,0.048615
3446.9,0.048822
3451.49,0.049041
3456.09,0.048942
3460.7,0.048593
3465.33,0.04884
3469.97,0.049107
3474.62,0.049091
3479.29,0.049189
3483.96,0.049466
3488.65,0.049322
3493.35,0.049436
3498.07,0.049602
3502.79,0.049757
3507.53,0.049737
3512.29,0.049616
3517.05,0.049895
3521.83,0.049866
3526.62,0.049661
3531.43,0.049763
3536.24,0.049891
3541.08,0.049863
3543.5,0.049896
3545.92,0.049896
3548.35,0.049877
3550.78,0.049868
3553.21,0.050027
3555.65,0.050179
3558.09,0.049968
3560.53,0.049975
3562.98,0.050115
3565.43,0.050263
3567.88,0.05033
3570.34,0.050193
3572.8,0.050162
3575.27,0.0502
3577.73,0.050183
3580.2,0.050284
3582.68,0.050447
3585.16,0.050436
3587.64,0.050429
3590.12,0.050557
3592.61,0.050502
3595.1,0.050483
3597.6,0.050694
3600.09,0.050623
3602.6,0.050437
3605.1,0.050485
3607.61,0.050661
3610.12,0.050683
3612.64,0.050544
3615.16,0.050622
3617.68,0.050782
3620.21,0.050839
3622.74,0.0508
3625.27,0.050832
3627.81,0.050809
3630.35,0.05085
3632.89,0.050875
3635.44,0.050845
3637.99,0.05078
3640.54,0.050791
3643.1,0.050872
3645.66,0.05098
3648.23,0.051009
3650.8,0.050987
3653.37,0.050987
3655.95,0.051096
3658.53,0.05114
3661.11,0.051091
3663.7,0.051204
3666.29,0.051312
3668.89,0.051254
3671.48,0.051184
3674.09,0.051316
3676.69,0.051344
3679.3,0.051242
3681.91,0.051282
3684.53,0.051425
3687.15,0.051459
3689.78,0.0514
3692.4,0.051274
3695.04,0.051098
3697.67,0.051272
3700.31,0.051538
3702.95,0.051515
3705.6,0.051326
3708.25,0.051313
3710.91,0.05134
3713.56,0.051394
3716.23,0.051447
3718.89,0.051464
3721.56,0.051535
3724.23,0.051533
3726.91,0.051505
3729.59,0.051632
3732.28,0.051608
3734.97,0.051535
3737.66,0.051454
3740.36,0.051522
3743.06,0.051693
3745.76,0.051688
3748.47,0.051536
3751.18,0.051522
3753.9,0.051579
3756.62,0.051775
3759.34,0.051836
3762.07,0.051775
3764.8,0.051618
3767.54,0.051686
3770.28,0.051766
3773.02,0.051756
3775.77,0.051772
3778.52,0.051737
3781.28,0.051755
3784.04,0.051849
3786.8,0.051962
3789.57,0.052008
3792.34,0.051996
3795.12,0.051995
3797.9,0.051817
3800.69,0.051727
3803.47,0.051793
3806.27,0.051971
3809.06,0.052138
3811.86,0.052041
3814.67,0.051767
3817.48,0.051758
3820.29,0.051926
3823.11,0.052029
3825.93,0.051949
3828.76,0.05187
3831.59,0.051988
3834.42,0.052068
3837.26,0.052042
3840.1,0.052112
3842.95,0.052062
3845.8,0.051981
3848.65,0.05215
3851.51,0.05221
3854.38,0.052169
3857.24,0.052113
3860.12,0.052095
3862.99,0.052275
3865.87,0.052276
3868.76,0.052204
3871.65,0.052245
3874.54,0.052289
3877.44,0.052308
3880.34,0.052364
3883.25,0.052312
3886.16,0.05228
3889.07,0.052291
3891.99,0.052328
3894.92,0.05233
3897.85,0.052364
3900.78,0.0524
3903.72,0.052351
3906.66,0.052328
3909.6,0.052311
3912.55,0.0523
3915.51,0.052238
3918.47,0.052273
3921.43,0.052369
3924.4,0.052452
3927.38,0.052366
3930.35,0.052171
3933.33,0.052032
3936.32,0.052146
3939.31,0.052315
3942.31,0.05225
3945.31,0.052124
3948.31,0.05211
3951.32,0.052231
3954.34,0.052231
3957.35,0.05218
3960.38,0.052204
3963.41,0.052152
3966.44,0.052055
3969.48,0.052024
3972.52,0.052032
3975.56,0.051973
3978.61,0.051875
3981.67,0.051738
3984.73,0.051745
3987.8,0.051894
3990.87,0.051809
3993.94,0.051661
3997.02,0.051672
4000.1,0.051655
4003.19,0.051573
4006.29,0.051537
4009.39,0.051541
4012.49,0.051526
4015.6,0.051504
4018.71,0.051461
4021.83,0.051377
4024.95,0.051348
4028.08,0.051418
4031.21,0.051337
4034.35,0.051205
4037.49,0.051126
4040.64,0.051033
4043.79,0.051073
4046.94,0.051309
4050.11,0.051294
4053.27,0.051229
4056.44,0.051142
4059.62,0.050956
4062.8,0.050946
4065.99,0.050937
4069.18,0.050808
4072.38,0.050838
4075.58,0.050859
4078.78,0.050865
4082.0,0.050812
4085.21,0.050797
4088.43,0.050724
4091.66,0.050674
4094.89,0.050596
4098.13,0.050531
4101.37,0.050509
4104.62,0.050492
4107.87,0.050523
4111.13,0.050468
4114.39,0.050313
4117.66,0.050158
4120.93,0.050166
4124.21,0.050277
4127.5,0.050168
4130.79,0.050078
4134.08,0.050072
4137.38,0.050245
4140.68,0.050429
4143.99,0.0504
4147.31,0.050375
4150.63,0.05053
4153.95,0.050692
4157.29,0.05069
4160.62,0.05073
4163.96,0.051016
4167.31,0.051131
4170.66,0.051175
4174.02,0.051257
4177.39,0.051241
4180.75,0.051347
4184.13,0.051521
4187.51,0.051617
4190.89,0.051694
4194.28,0.051809
4197.68,0.051859
4201.08,0.051908
4204.49,0.051919
4207.9,0.05198
4211.32,0.052183
4214.74,0.05237
4218.17,0.052355
4221.61,0.052384
4225.05,0.052414
4228.5,0.052472
4231.95,0.052699
4235.4,0.052869
4238.87,0.052937
4242.34,0.053029
4245.81,0.053142
4249.29,0.053237
4252.78,0.053191
4256.27,0.053062
4259.77,0.053145
4263.27,0.053299
4266.78,0.053353
4270.29,0.053395
4273.81,0.053508
4277.34,0.053656
4280.87,0.05384
4284.41,0.053969
4287.95,0.054014
4291.5,0.054194
4295.06,0.054284
4298.62,0.054188
4302.19,0.054144
4305.76,0.054261
4309.34,0.054377
4312.92,0.054356
4316.52,0.054382
4320.11,0.054553
4323.72,0.054701
4327.32,0.054704
4330.94,0.054726
4334.56,0.054902
4338.19,0.055086
4341.82,0.055083
4345.46,0.055123
4349.11,0.055256
4352.76,0.055362
4356.42,0.055418
4360.08,0.055468
4363.75,0.055526
4367.43,0.055565
4371.11,0.055588
4374.8,0.055771
4378.49,0.055995
4382.19,0.05603
4385.9,0.056014
4389.61,0.056122
4393.33,0.056307
4397.06,0.056355
4400.79,0.056279
4404.53,0.056157
4408.28,0.056244
4412.03,0.056439
4415.79,0.056546
4419.55,0.05644
4423.32,0.056395
4427.1,0.056465
4430.88,0.056582
4434.68,0.056645
4438.47,0.056718
4442.28,0.056843
4446.08,0.056975
4449.9,0.056991
4453.72,0.057032
4457.55,0.05715
4461.39,0.057249
4465.23,0.057393
4469.08,0.057558
4472.94,0.057754
4476.8,0.058045
4480.67,0.058349
4484.55,0.058463
4488.43,0.058587
4492.32,0.058798
4496.21,0.059041
4500.12,0.059404
4504.03,0.059731
4507.94,0.060066
4511.87,0.06048
4515.8,0.060814
4519.73,0.061133
4523.68,0.06144
4527.63,0.061711
4531.59,0.061961
4535.55,0.062324
4539.52,0.062614
4543.5,0.063002
4547.49,0.06338
4551.48,0.063591
4555.48,0.063908
4559.49,0.064314
4563.5,0.064602
4567.52,0.064828
4571.55,0.065169
4575.58,0.065488
4579.63,0.065841
4583.67,0.066151
4587.73,0.066592
4591.79,0.067023
4595.86,0.067393
4599.94,0.0678
4604.03,0.068072
4608.12,0.068357
4612.22,0.068732
4616.33,0.06908
4620.44,0.069317
4624.56,0.069538
4628.69,0.069827
4632.83,0.070059
4636.97,0.070237
4641.12,0.070549
4645.28,0.07088
4649.45,0.071126
4653.62,0.071383
4657.8,0.071647
4661.99,0.071836
4666.19,0.072009
4670.39,0.072247
4674.6,0.072432
4678.82,0.072624
4683.05,0.072753
4687.28,0.07285
4691.52,0.072925
4695.77,0.073056
4700.03,0.073259
4704.3,0.073411
4708.57,0.073578
4712.85,0.073699
4717.14,0.073833
4721.43,0.074054
4725.74,0.074183
4730.05,0.074321
4734.37,0.074443
4738.7,0.074549
4743.03,0.07461
4747.38,0.074708
4751.73,0.074882
4756.09,0.074971
4760.45,0.075062
4764.83,0.075284
4769.21,0.075507
4773.6,0.075626
4778.0,0.075707
4782.41,0.075825
4786.83,0.075951
4791.25,0.075997
4795.68,0.076036
4800.13,0.076139
4804.57,0.076323
4809.03,0.076516
4813.5,0.076615
4817.97,0.076661
