Database of Origin,University of Winnipeg Spectrophotometer Facility
Sample Description,Carbonaceous chondrites - RELAB archive 2. CM chondrites
Date Added,2018-07-23 23:44:50.614026

Data ID,RLA_MET_33_67       
Sample ID,Nogoya
Mineral Name,CM Chondrite
Grain Size,<125 um
Viewing Geometry,30/0
Material Class,CM2.2

Wavelength
305.0,0.018217
310.0,0.019451
315.0,0.020262
320.0,0.021626
325.0,0.022182
330.0,0.022611
335.0,0.023031
340.0,0.023615
345.0,0.023926
350.0,0.024624
355.0,0.025381
360.0,0.026017
365.0,0.026773
370.0,0.027569
375.0,0.027949
380.0,0.029185
385.0,0.029903
390.0,0.030684
395.0,0.030944
400.0,0.031703
405.0,0.032389
410.0,0.033014
415.0,0.033581
420.0,0.03437
425.0,0.034845
430.0,0.035441
435.0,0.036683
440.0,0.037021
445.0,0.03754
450.0,0.037978
455.0,0.038295
460.0,0.03855
465.0,0.038778
470.0,0.039417
475.0,0.039653
480.0,0.040151
485.0,0.040398
490.0,0.040744
495.0,0.041059
500.0,0.041382
505.0,0.041816
510.0,0.042079
515.0,0.042304
520.0,0.04268
525.0,0.042865
530.0,0.043035
535.0,0.04323
540.0,0.043336
545.0,0.04347
550.0,0.043681
555.0,0.043739
560.0,0.04384
565.0,0.043789
570.0,0.043916
575.0,0.043769
580.0,0.043816
585.0,0.043775
590.0,0.043768
595.0,0.04374
600.0,0.043631
605.0,0.043604
610.0,0.043647
615.0,0.04363
620.0,0.043614
625.0,0.043501
630.0,0.043424
635.0,0.043329
640.0,0.043212
645.0,0.043178
650.0,0.043025
655.0,0.042889
660.0,0.04271
665.0,0.04262
670.0,0.042489
675.0,0.042449
680.0,0.042415
685.0,0.042366
690.0,0.04221
695.0,0.042138
700.0,0.042148
705.0,0.042056
710.0,0.042042
715.0,0.042026
720.0,0.042099
725.0,0.042033
730.0,0.041915
735.0,0.04192
740.0,0.041934
745.0,0.042016
750.0,0.042041
755.0,0.042077
760.0,0.042489
765.0,0.042533
770.0,0.042783
775.0,0.042841
780.0,0.042863
785.0,0.042897
790.0,0.042678
795.0,0.042885
800.0,0.042982
805.0,0.043085
810.0,0.042884
815.0,0.042982
820.0,0.042989
825.0,0.043052
830.0,0.043142
835.0,0.043103
840.0,0.043148
845.0,0.043174
850.0,0.043149
855.0,0.04312
860.0,0.043243
865.0,0.043408
870.0,0.043535
875.0,0.043281
880.0,0.043555
885.0,0.043588
890.0,0.04359
895.0,0.043389
900.0,0.043372
905.0,0.043528
910.0,0.043786
915.0,0.043764
920.0,0.043557
925.0,0.043871
930.0,0.043722
935.0,0.043787
940.0,0.04387
945.0,0.044008
950.0,0.043802
955.0,0.043926
960.0,0.044287
965.0,0.0443
970.0,0.044084
975.0,0.044135
980.0,0.044133
985.0,0.044355
990.0,0.044318
995.0,0.044473
1000.0,0.044474
1005.0,0.044439
1010.0,0.044597
1015.0,0.044614
1020.0,0.044589
1025.0,0.04474
1030.0,0.044791
1035.0,0.044942
1040.0,0.045011
1045.0,0.044998
1050.0,0.045237
1055.0,0.045099
1060.0,0.045168
1065.0,0.044988
1070.0,0.045031
1075.0,0.045164
1080.0,0.045207
1085.0,0.045213
1090.0,0.045443
1095.0,0.045444
1100.0,0.045257
1105.0,0.045373
1110.0,0.045452
1115.0,0.045465
1120.0,0.045623
1125.0,0.045568
1130.0,0.045562
1135.0,0.045605
1140.0,0.045633
1145.0,0.045817
1150.0,0.045829
1155.0,0.045813
1160.0,0.04595
1165.0,0.045841
1170.0,0.046101
1175.0,0.04622
1180.0,0.046285
1185.0,0.046169
1190.0,0.046267
1195.0,0.04636
1200.0,0.04658
1205.0,0.046494
1210.0,0.046879
1215.0,0.046813
1220.0,0.046864
1225.0,0.046881
1230.0,0.04686
1235.0,0.046881
1240.0,0.047129
1245.0,0.047092
1250.0,0.047007
1255.0,0.046982
1260.0,0.047063
1265.0,0.047271
1270.0,0.047353
1275.0,0.047448
1280.0,0.04734
1285.0,0.047459
1290.0,0.047364
1295.0,0.047483
1300.0,0.047478
1305.0,0.047551
1310.0,0.047673
1315.0,0.047672
1320.0,0.047896
1325.0,0.048034
1330.0,0.048008
1335.0,0.048074
1340.0,0.048079
1345.0,0.048048
1350.0,0.047959
1355.0,0.047964
1360.0,0.048068
1365.0,0.048167
1370.0,0.048343
1375.0,0.048141
1380.0,0.048141
1385.0,0.048477
1390.0,0.048367
1395.0,0.048358
1400.0,0.048515
1405.0,0.04844
1410.0,0.048709
1415.0,0.048891
1420.0,0.048872
1425.0,0.048833
1430.0,0.048921
1435.0,0.049003
1440.0,0.048969
1445.0,0.049264
1450.0,0.049167
1455.0,0.049222
1460.0,0.048971
1465.0,0.049221
1470.0,0.049339
1475.0,0.049468
1480.0,0.04949
1485.0,0.04964
1490.0,0.049627
1495.0,0.049719
1500.0,0.049733
1505.0,0.04989
1510.0,0.049807
1515.0,0.049564
1520.0,0.049928
1525.0,0.049762
1530.0,0.050037
1535.0,0.050113
1540.0,0.050074
1545.0,0.050179
1550.0,0.050197
1555.0,0.050143
1560.0,0.050379
1565.0,0.050107
1570.0,0.050386
1575.0,0.050283
1580.0,0.050265
1585.0,0.05061
1590.0,0.050428
1595.0,0.050437
1600.0,0.050434
1605.0,0.050543
1610.0,0.050728
1615.0,0.050741
1620.0,0.051003
1625.0,0.050862
1630.0,0.050739
1635.0,0.050765
1640.0,0.050943
1645.0,0.050835
1650.0,0.050882
1655.0,0.051029
1660.0,0.050772
1665.0,0.050843
1670.0,0.05078
1675.0,0.050753
1680.0,0.050814
1685.0,0.050749
1690.0,0.050849
1695.0,0.051009
1700.0,0.050997
1705.0,0.050994
1710.0,0.050972
1715.0,0.05118
1720.0,0.051221
1725.0,0.051199
1730.0,0.051179
1735.0,0.051167
1740.0,0.051238
1745.0,0.051159
1750.0,0.051316
1755.0,0.051302
1760.0,0.051441
1765.0,0.051434
1770.0,0.051426
1775.0,0.051456
1780.0,0.051488
1785.0,0.051482
1790.0,0.0517
1795.0,0.051729
1800.0,0.051785
1805.0,0.051831
1810.0,0.051925
1815.0,0.051827
1820.0,0.051997
1825.0,0.051957
1830.0,0.052001
1835.0,0.051947
1840.0,0.0521
1845.0,0.052071
1850.0,0.052177
1855.0,0.052051
1860.0,0.05202
1865.0,0.052059
1870.0,0.052271
1875.0,0.052203
1880.0,0.052222
1885.0,0.052237
1890.0,0.052263
1895.0,0.05223
1900.0,0.05225
1905.0,0.052263
1910.0,0.052219
1915.0,0.05225
1920.0,0.052251
1925.0,0.052216
1930.0,0.052162
1935.0,0.052161
1940.0,0.052265
1945.0,0.052274
1950.0,0.052374
1955.0,0.052344
1960.0,0.052399
1965.0,0.052386
1970.0,0.052486
1975.0,0.052497
1980.0,0.052479
1985.0,0.052567
1990.0,0.05282
1995.0,0.052574
2000.0,0.052713
2005.0,0.052726
2010.0,0.05277
2015.0,0.052762
2020.0,0.052759
2025.0,0.052786
2030.0,0.052731
2035.0,0.052747
2040.0,0.052812
2045.0,0.052794
2050.0,0.0529
2055.0,0.052716
2060.0,0.05266
2065.0,0.052813
2070.0,0.052785
2075.0,0.052972
2080.0,0.052852
2085.0,0.052904
2090.0,0.053023
2095.0,0.052998
2100.0,0.052968
2105.0,0.052831
2110.0,0.052961
2115.0,0.052941
2120.0,0.052856
2125.0,0.052807
2130.0,0.052968
2135.0,0.052777
2140.0,0.05289
2145.0,0.052842
2150.0,0.052969
2155.0,0.052952
2160.0,0.052879
2165.0,0.05297
2170.0,0.05292
2175.0,0.052991
2180.0,0.053089
2185.0,0.053217
2190.0,0.053262
2195.0,0.05322
2200.0,0.053153
2205.0,0.053411
2210.0,0.053335
2215.0,0.053515
2220.0,0.053621
2225.0,0.053518
2230.0,0.053495
2235.0,0.053561
2240.0,0.05351
2245.0,0.053611
2250.0,0.053466
2255.0,0.053546
2260.0,0.053488
2265.0,0.053513
2270.0,0.053582
2275.0,0.053525
2280.0,0.053474
2285.0,0.0535
2290.0,0.053402
2295.0,0.05344
2300.0,0.053395
2305.0,0.053424
2310.0,0.0534
2315.0,0.05308
2320.0,0.053269
2325.0,0.053232
2330.0,0.05318
2335.0,0.053254
2340.0,0.053237
2345.0,0.053138
2350.0,0.053269
2355.0,0.053343
2360.0,0.053316
2365.0,0.053291
2370.0,0.053366
2375.0,0.053322
2380.0,0.053424
2385.0,0.053369
2390.0,0.053517
2395.0,0.053407
2400.0,0.053408
2405.0,0.053312
2410.0,0.053507
2415.0,0.053371
2420.0,0.053591
2425.0,0.053508
2430.0,0.053479
2435.0,0.053327
2440.0,0.053403
2445.0,0.053451
2450.0,0.053325
2455.0,0.053435
2460.0,0.053572
2465.0,0.053436
2470.0,0.053514
2475.0,0.053575
2480.0,0.053223
2485.0,0.053368
2490.0,0.053345
2495.0,0.053269
2500.0,0.053341
2505.0,0.053085
2510.0,0.053308
2515.0,0.053245
2520.0,0.053232
2525.0,0.053354
2530.0,0.053173
2535.0,0.053016
2540.0,0.053188
2545.0,0.052858
2550.0,0.053047
2555.0,0.052928
2560.0,0.052884
2565.0,0.052798
2570.0,0.052521
2575.0,0.052605
2580.0,0.052924
2585.0,0.052335
2590.0,0.052514
2595.0,0.052322
2600.0,0.052748
