Database of Origin,University of Winnipeg Spectrophotometer Facility
Sample Description,Carbonates and Oxolates - RELAB+Nicolet spectra Newly merged spectra (merged by RELAB)
Other Information,dry seived
Date Added,2018-08-06 20:49:02.985797

Data ID,RLA_CARB_1_40       
Sample ID,CRB211
Mineral Name,Pirssonite
Locality,Searles Lake/ San Bernardino County/ California/ USA
Grain Size,45-90 um
Viewing Geometry,30/0/30
Resolution,5/ 0.6-129 nm
Formula,CaCO3*Na2CO3*2(H2O)

Wavelength
305.0,0.357417
310.0,0.361584
315.0,0.365518
320.0,0.373804
325.0,0.37657
330.0,0.384466
335.0,0.38887
340.0,0.396734
345.0,0.399909
350.0,0.405855
355.0,0.41098
360.0,0.417969
365.0,0.421283
370.0,0.427718
375.0,0.432994
380.0,0.436457
385.0,0.440511
390.0,0.444317
395.0,0.445596
400.0,0.445684
405.0,0.4501
410.0,0.454959
415.0,0.46045
420.0,0.465972
425.0,0.473262
430.0,0.479672
435.0,0.485638
440.0,0.491451
445.0,0.496632
450.0,0.500915
455.0,0.506881
460.0,0.510797
465.0,0.515761
470.0,0.520167
475.0,0.526316
480.0,0.529667
485.0,0.533697
490.0,0.537409
495.0,0.540938
500.0,0.54469
505.0,0.548891
510.0,0.553115
515.0,0.555907
520.0,0.560458
525.0,0.563934
530.0,0.56891
535.0,0.573109
540.0,0.575634
545.0,0.579328
550.0,0.581584
555.0,0.58351
560.0,0.587094
565.0,0.587608
570.0,0.589542
575.0,0.590143
580.0,0.591087
585.0,0.5919
590.0,0.592135
595.0,0.592341
600.0,0.591179
605.0,0.590621
610.0,0.589049
615.0,0.588429
620.0,0.586676
625.0,0.586168
630.0,0.586811
635.0,0.584815
640.0,0.583772
645.0,0.582442
650.0,0.581881
655.0,0.584774
660.0,0.587395
665.0,0.590701
670.0,0.592895
675.0,0.597113
680.0,0.599813
685.0,0.602339
690.0,0.603201
695.0,0.607917
700.0,0.609144
705.0,0.611715
710.0,0.611517
715.0,0.614579
720.0,0.615882
725.0,0.615872
730.0,0.618129
735.0,0.619802
740.0,0.621839
745.0,0.621462
750.0,0.625115
755.0,0.627019
760.0,0.629633
765.0,0.629956
770.0,0.631103
775.0,0.631539
780.0,0.633683
785.0,0.63663
790.0,0.637611
795.0,0.640712
800.0,0.642117
805.0,0.643172
810.0,0.645099
815.0,0.647145
820.0,0.648898
825.0,0.649334
830.0,0.650912
835.0,0.652382
840.0,0.653309
845.0,0.654475
850.0,0.654688
855.0,0.655634
860.0,0.656323
865.0,0.657329
870.0,0.657498
875.0,0.659178
880.0,0.659141
885.0,0.659425
890.0,0.659814
895.0,0.661612
900.0,0.659751
905.0,0.661079
910.0,0.661264
915.0,0.661692
920.0,0.662786
925.0,0.663171
930.0,0.662599
935.0,0.664033
940.0,0.665038
945.0,0.6658
950.0,0.66616
955.0,0.667306
960.0,0.668255
965.0,0.667706
970.0,0.670227
975.0,0.668521
980.0,0.671803
985.0,0.670135
990.0,0.67175
995.0,0.667835
1000.0,0.672126
1005.0,0.671266
1010.0,0.673143
1015.0,0.670453
1020.0,0.671616
1025.0,0.671558
1030.0,0.671322
1035.0,0.672839
1040.0,0.67177
1045.0,0.670981
1050.0,0.671749
1055.0,0.670685
1060.0,0.670392
1065.0,0.672021
1070.0,0.67275
1075.0,0.673055
1080.0,0.672394
1085.0,0.673469
1090.0,0.673499
1095.0,0.674319
1100.0,0.674878
1105.0,0.67443
1110.0,0.674817
1115.0,0.676159
1120.0,0.676561
1125.0,0.678097
1130.0,0.678662
1135.0,0.67905
1140.0,0.680419
1145.0,0.681819
1150.0,0.681801
1155.0,0.681717
1160.0,0.682555
1165.0,0.682777
1170.0,0.682354
1175.0,0.682737
1180.0,0.681621
1185.0,0.680865
1190.0,0.68053
1195.0,0.680494
1200.0,0.679691
1205.0,0.680196
1210.0,0.678996
1215.0,0.680229
1220.0,0.678196
1225.0,0.677986
1230.0,0.676129
1235.0,0.67564
1240.0,0.675092
1245.0,0.673283
1250.0,0.674718
1255.0,0.675271
1260.0,0.675724
1265.0,0.675461
1270.0,0.674849
1275.0,0.675031
1280.0,0.674994
1285.0,0.674498
1290.0,0.675893
1295.0,0.676808
1300.0,0.679257
1305.0,0.681957
1310.0,0.680129
1315.0,0.68175
1320.0,0.684262
1325.0,0.684
1330.0,0.686152
1335.0,0.68638
1340.0,0.686844
1345.0,0.686237
1350.0,0.685936
1355.0,0.685691
1360.0,0.68549
1365.0,0.685044
1370.0,0.684944
1375.0,0.684332
1380.0,0.683912
1385.0,0.682756
1420.0,0.680901
1425.0,0.680545
1430.0,0.680011
1435.0,0.679337
1440.0,0.677989
1445.0,0.676105
1450.0,0.67353
1455.0,0.669744
1460.0,0.665964
1465.0,0.661299
1470.0,0.656268
1475.0,0.65035
1480.0,0.643803
1485.0,0.637213
1490.0,0.631066
1495.0,0.623287
1500.0,0.615476
1505.0,0.606884
1510.0,0.599357
1515.0,0.590426
1520.0,0.581453
1525.0,0.574013
1530.0,0.565513
1535.0,0.558711
1540.0,0.550762
1545.0,0.544774
1550.0,0.537782
1555.0,0.532479
1560.0,0.527934
1565.0,0.522922
1570.0,0.518907
1575.0,0.516074
1580.0,0.514793
1585.0,0.514345
1590.0,0.514397
1595.0,0.513823
1600.0,0.513277
1605.0,0.512517
1610.0,0.511516
1615.0,0.510013
1620.0,0.507809
1625.0,0.50516
1630.0,0.501813
1635.0,0.49822
1640.0,0.494854
1645.0,0.490541
1650.0,0.485628
1655.0,0.480944
1660.0,0.475876
1665.0,0.471929
1670.0,0.467033
1675.0,0.462056
1680.0,0.458407
1685.0,0.453902
1690.0,0.450343
1695.0,0.446275
1700.0,0.442951
1705.31,0.439086
1709.81,0.436283
1715.46,0.43242
1720.02,0.42973
1724.6,0.427119
1730.35,0.424096
1734.98,0.421839
1739.64,0.420183
1745.5,0.418582
1750.21,0.4181
1754.95,0.418194
1759.72,0.418921
1764.51,0.420146
1770.54,0.422375
1775.39,0.424408
1780.27,0.427067
1785.17,0.429914
1790.1,0.432711
1795.06,0.435749
1800.05,0.438533
1805.06,0.441466
1810.1,0.443993
1815.17,0.447077
1820.27,0.450094
1825.4,0.453626
1830.56,0.457293
1834.44,0.459912
1839.65,0.463603
1844.89,0.467418
1850.16,0.471098
1855.45,0.474297
1859.45,0.476573
1864.8,0.478685
1870.18,0.479726
1875.59,0.479617
1879.67,0.478457
1885.14,0.475683
1890.64,0.47065
1894.79,0.465701
1900.34,0.457235
1904.53,0.449721
1910.15,0.43823
1914.38,0.428392
1920.05,0.414271
1924.33,0.403046
1930.06,0.387396
1934.38,0.375356
1940.17,0.3596
1944.54,0.347899
1950.39,0.332721
1954.8,0.322507
1960.72,0.309786
1965.18,0.300585
1969.66,0.291706
1975.66,0.279886
1980.19,0.270899
1984.74,0.262336
1989.31,0.254136
1995.43,0.246731
2000.05,0.243871
2004.69,0.244032
2009.35,0.246708
2015.6,0.252689
2020.32,0.257268
2025.05,0.261055
2029.81,0.263504
2034.59,0.265026
2039.39,0.26613
2044.22,0.266986
2050.69,0.26749
2055.57,0.267141
2060.47,0.265939
2065.39,0.26443
2070.34,0.263056
2075.31,0.261306
2080.31,0.259158
2085.33,0.256336
2090.38,0.253332
2095.45,0.250736
2100.54,0.249463
2105.66,0.249557
2110.8,0.25209
2114.25,0.254605
2119.43,0.259981
2124.65,0.266534
2129.88,0.273817
2135.15,0.281149
2140.44,0.288106
2145.75,0.294443
2149.31,0.298339
2154.67,0.303472
2160.06,0.308392
2165.47,0.31421
2170.91,0.321366
2174.55,0.327096
2180.04,0.336982
2185.55,0.34768
2189.25,0.355229
2194.81,0.366969
2200.4,0.378476
2204.14,0.385675
2209.78,0.395624
2215.44,0.404006
2219.24,0.40883
2224.95,0.414321
2230.7,0.417968
2234.54,0.4197
2240.33,0.420864
2244.21,0.421012
2250.06,0.420755
2255.93,0.420566
2259.87,0.420589
2265.79,0.420711
2269.76,0.420979
2275.74,0.421628
2279.74,0.422017
2285.77,0.421829
2289.81,0.421919
2295.9,0.42234
2299.97,0.42261
2304.06,0.422266
2310.22,0.421366
2314.35,0.420753
2320.56,0.419917
2324.72,0.41908
2331.0,0.417277
2335.2,0.415745
2339.41,0.414164
2345.76,0.411001
2350.02,0.409364
2354.28,0.407247
2360.72,0.404027
2365.03,0.401551
2369.35,0.398915
2375.86,0.394012
2380.23,0.390618
2384.61,0.386634
2389.0,0.382617
2395.63,0.376395
2400.06,0.371946
2404.52,0.367558
2408.98,0.362653
2415.72,0.353866
2420.23,0.346913
2424.76,0.339027
2429.3,0.329985
2433.87,0.31967
2440.74,0.301835
2445.35,0.288275
2449.97,0.273652
2454.61,0.258097
2459.27,0.242366
2463.94,0.227284
2470.99,0.207877
2475.71,0.198278
2480.45,0.192776
2485.2,0.191279
2489.98,0.193456
2494.77,0.198747
2499.58,0.205534
2504.41,0.212552
2509.26,0.219611
2514.13,0.226151
2519.02,0.232298
2523.92,0.238323
2528.85,0.24487
2533.79,0.250202
2541.24,0.257071
2543.74,0.258804
2548.74,0.262455
2553.76,0.265656
2556.28,0.267541
2558.8,0.269739
2561.33,0.271956
2563.86,0.274244
2566.4,0.277031
2568.95,0.279482
2571.5,0.281488
2574.05,0.283416
2576.61,0.284942
2579.17,0.285905
2581.74,0.28673
2584.31,0.287235
2586.89,0.287513
2589.48,0.287691
2592.07,0.287538
2594.66,0.287201
2597.26,0.287009
2599.87,0.286942
2602.48,0.286741
2605.09,0.286546
2607.71,0.286699
2610.34,0.287295
2612.97,0.288118
2615.61,0.288796
2618.25,0.289535
2620.9,0.290329
2623.55,0.291357
2626.21,0.292148
2628.87,0.292638
2631.54,0.292965
2634.22,0.293356
2636.89,0.293371
2639.58,0.293168
2642.27,0.293122
2644.97,0.29272
2647.67,0.291847
2650.38,0.29072
2653.09,0.289569
2655.81,0.288401
2658.53,0.286858
2661.26,0.285024
2664.0,0.283232
2666.74,0.281235
2669.48,0.278921
2672.23,0.276671
2674.99,0.274062
2677.76,0.271426
2680.52,0.268412
2683.3,0.265215
2686.08,0.261781
2688.87,0.258005
2691.66,0.253815
2694.46,0.249327
2697.26,0.244183
2700.07,0.238989
2702.89,0.233636
2705.71,0.227924
2708.53,0.222333
2711.37,0.216676
2714.21,0.21064
2717.05,0.205197
2719.9,0.199651
2722.76,0.193959
2725.62,0.188091
2728.49,0.182132
2731.37,0.175592
2734.25,0.168765
2737.14,0.161796
2740.03,0.155002
2742.93,0.147714
2745.83,0.140766
2748.75,0.134217
2751.66,0.127512
2754.59,0.121258
2757.52,0.114892
2760.46,0.108215
2763.4,0.102364
2766.35,0.096611
2769.3,0.091379
2772.26,0.08629
2775.23,0.081156
2778.21,0.076341
2781.19,0.072154
2784.18,0.068384
2787.17,0.064668
2790.17,0.061188
2793.18,0.058046
2796.19,0.055236
2799.21,0.052686
2802.24,0.050369
2805.27,0.048273
2808.31,0.046257
2811.35,0.044436
2814.41,0.042857
2817.46,0.041461
2820.53,0.040179
2823.6,0.038953
2826.68,0.038059
2829.77,0.037102
2832.86,0.036384
2835.96,0.035756
2839.07,0.034983
2842.18,0.034361
2845.3,0.033924
2848.43,0.033455
2851.56,0.032795
2854.7,0.032471
2857.85,0.032341
2861.0,0.032058
2864.16,0.031736
2867.33,0.031575
2870.51,0.031275
2873.69,0.031001
2876.88,0.03076
2880.07,0.030595
2883.28,0.030574
2886.49,0.0304
2889.71,0.029986
2892.93,0.02973
2896.17,0.029657
2899.4,0.02968
2902.65,0.029538
2905.91,0.029341
2909.17,0.029067
2912.44,0.029132
2915.71,0.029234
2918.99,0.029245
2922.29,0.029117
2925.58,0.02887
2928.89,0.028767
2932.2,0.028864
2935.52,0.028945
2938.85,0.029197
2942.19,0.029331
2945.53,0.029356
2948.88,0.029295
2952.24,0.029176
2955.61,0.029335
2958.98,0.029858
2962.36,0.029923
2965.75,0.029496
2969.15,0.029429
2972.55,0.029594
2975.97,0.029751
2979.39,0.029806
2986.25,0.03013
2989.7,0.03022
2993.15,0.030302
2996.61,0.030363
3000.08,0.030488
3003.55,0.030721
3007.04,0.030714
3010.53,0.03079
3014.03,0.030909
3017.54,0.030984
3021.06,0.031349
3024.58,0.031669
3028.12,0.031625
3031.66,0.031621
3035.21,0.031872
3038.77,0.031954
3042.33,0.032109
3045.91,0.032282
3049.49,0.032213
3053.08,0.03218
3056.68,0.032423
3060.29,0.032747
3063.91,0.0328
3067.54,0.032873
3071.17,0.032829
3074.81,0.032969
3078.47,0.033176
3082.13,0.033434
3085.79,0.03379
3089.47,0.033679
3093.16,0.033476
3096.85,0.033905
3100.56,0.034269
3104.27,0.034545
3107.99,0.034757
3111.73,0.034967
3115.47,0.035432
3119.21,0.035744
3122.97,0.035507
3126.74,0.036144
3130.52,0.036153
3134.3,0.036599
3138.1,0.036841
3141.9,0.036759
3145.71,0.037181
3149.54,0.037429
3153.37,0.037449
3157.21,0.037641
3161.06,0.037849
3164.92,0.037725
3168.79,0.03811
3172.67,0.03822
3176.55,0.038833
3180.45,0.038705
3184.36,0.039277
3188.27,0.039226
3192.2,0.039313
3196.14,0.039218
3200.08,0.039622
3204.04,0.03993
3208.0,0.040427
3211.98,0.040326
3215.96,0.041009
3219.96,0.041692
3223.96,0.042015
3227.98,0.042039
3232.0,0.042461
3236.04,0.042924
3240.08,0.04345
3244.14,0.04383
3248.2,0.044292
3252.28,0.044315
3256.37,0.044828
3260.46,0.045263
3264.57,0.045566
3268.69,0.045776
3272.81,0.045997
3276.95,0.046157
3281.1,0.046592
3285.26,0.046493
3289.43,0.046595
3293.61,0.046955
3297.8,0.04634
3302.0,0.046322
3306.21,0.046455
3310.43,0.04648
3314.66,0.046119
3318.91,0.046323
3323.16,0.046243
3327.43,0.046132
3331.71,0.045787
3335.99,0.046086
3340.29,0.045838
3344.6,0.045597
3348.92,0.045785
3353.26,0.045475
3357.6,0.045668
3361.96,0.045518
3366.32,0.045296
3370.7,0.045367
3375.09,0.045639
3379.49,0.04558
3383.9,0.045865
3388.32,0.045668
3392.76,0.045663
3397.21,0.045458
3401.66,0.045573
3406.13,0.045756
3410.61,0.045588
3415.11,0.045599
3419.61,0.045476
3424.13,0.045876
3428.66,0.045745
3433.2,0.04579
3437.76,0.045818
3442.32,0.046126
3446.9,0.045849
3451.49,0.046092
3456.09,0.046177
3460.7,0.046497
3465.33,0.046391
3469.97,0.0465
3474.62,0.046385
3479.29,0.046375
3483.96,0.046639
3488.65,0.04667
3493.35,0.047074
3498.07,0.047368
3502.79,0.047032
3507.53,0.046973
3512.29,0.047265
3517.05,0.047693
3521.83,0.04762
3526.62,0.047871
3531.43,0.048257
3536.24,0.048359
3541.08,0.048406
3543.5,0.048547
3545.92,0.048651
3548.35,0.048541
3550.78,0.048461
3553.21,0.048474
3555.65,0.048755
3558.09,0.048786
3560.53,0.048759
3562.98,0.049073
3565.43,0.04919
3567.88,0.049148
3570.34,0.04946
3572.8,0.049591
3575.27,0.049704
3577.73,0.049779
3580.2,0.049646
3582.68,0.049852
3585.16,0.05002
3587.64,0.049907
3590.12,0.050013
3592.61,0.050274
3595.1,0.050394
3597.6,0.050491
3600.09,0.050661
3602.6,0.050785
3605.1,0.051137
3607.61,0.051318
3610.12,0.051393
3612.64,0.051455
3615.16,0.051462
3617.68,0.051512
3620.21,0.051767
3622.74,0.052059
3625.27,0.05228
3627.81,0.052309
3630.35,0.052138
3632.89,0.052191
3635.44,0.052541
3637.99,0.052788
3640.54,0.053023
3643.1,0.053171
3645.66,0.053133
3648.23,0.053058
3650.8,0.053299
3653.37,0.05356
3655.95,0.053472
3658.53,0.053616
3661.11,0.05398
3663.7,0.054204
3666.29,0.054374
3668.89,0.054467
3671.48,0.054595
3674.09,0.054668
3676.69,0.054812
3679.3,0.054947
3681.91,0.055267
3684.53,0.055595
3687.15,0.055793
3689.78,0.055929
3692.4,0.055915
3695.04,0.05596
3697.67,0.056158
3700.31,0.056399
3702.95,0.056625
3705.6,0.056912
3708.25,0.057083
3710.91,0.057094
3713.56,0.057151
3716.23,0.057317
3718.89,0.057616
3721.56,0.05787
3724.23,0.058213
3726.91,0.058451
3729.59,0.05862
3732.28,0.05892
3734.97,0.059069
3737.66,0.059267
3740.36,0.059411
3743.06,0.05955
3745.76,0.059787
3748.47,0.060303
3751.18,0.060654
3753.9,0.06074
3756.62,0.060972
3759.34,0.061233
3762.07,0.061479
3764.8,0.06166
3767.54,0.061846
3770.28,0.062176
3773.02,0.062432
3775.77,0.062768
3778.52,0.063045
3781.28,0.063029
3784.04,0.063204
3786.8,0.063434
3789.57,0.06367
3792.34,0.063949
3795.12,0.064088
3797.9,0.064261
3800.69,0.064416
3803.47,0.064601
3806.27,0.064782
3809.06,0.064988
3811.86,0.064964
3814.67,0.065052
3817.48,0.06518
3820.29,0.065274
3823.11,0.065231
3825.93,0.065258
3828.76,0.065205
3831.59,0.064809
3834.42,0.064488
3837.26,0.064201
3840.1,0.063756
3842.95,0.063557
3845.8,0.063266
3848.65,0.062905
3851.51,0.062814
3854.38,0.062892
3857.24,0.062797
3860.12,0.062752
3862.99,0.062651
3865.87,0.062675
3868.76,0.06281
3871.65,0.062909
3874.54,0.062854
3877.44,0.062604
3880.34,0.062465
3883.25,0.062366
3886.16,0.062213
3889.07,0.062186
3891.99,0.062184
3894.92,0.062029
3897.85,0.061831
3900.78,0.061746
3903.72,0.061673
3906.66,0.061494
3909.6,0.061368
3912.55,0.061375
3915.51,0.061118
3918.47,0.060592
3921.43,0.060042
3924.4,0.059741
3927.38,0.059444
3930.35,0.059106
3933.33,0.058704
3936.32,0.058208
3939.31,0.057799
3942.31,0.057472
3945.31,0.056954
3948.31,0.056399
3951.32,0.056026
3954.34,0.055533
3957.35,0.055015
3960.38,0.054562
3963.41,0.05412
3966.44,0.05373
3969.48,0.053609
3972.52,0.053574
3975.56,0.053719
3978.61,0.054212
3981.67,0.054655
3984.73,0.055157
3987.8,0.055902
3990.87,0.056548
3993.94,0.056837
3997.02,0.057081
4000.1,0.057342
4003.19,0.057653
4006.29,0.057823
4009.39,0.057916
4012.49,0.057848
4015.6,0.057662
4018.71,0.057476
4021.83,0.057162
4024.95,0.056901
4028.08,0.056565
4031.21,0.056222
4034.35,0.055922
4037.49,0.055707
4040.64,0.055438
4043.79,0.054971
4046.94,0.054659
4050.11,0.054354
4053.27,0.053821
4056.44,0.053509
4059.62,0.053407
4062.8,0.053202
4065.99,0.052968
4069.18,0.052711
4072.38,0.052565
4075.58,0.052769
4078.78,0.053085
4082.0,0.05341
4085.21,0.053553
4088.43,0.05381
4091.66,0.054361
4094.89,0.054746
4098.13,0.055077
4101.37,0.055389
4104.62,0.055676
4107.87,0.055986
4111.13,0.056306
4114.39,0.056384
4117.66,0.056393
4120.93,0.056492
4124.21,0.056656
4127.5,0.056594
4130.79,0.056269
4134.08,0.056152
4137.38,0.056034
4140.68,0.055875
4143.99,0.05571
4147.31,0.055477
4150.63,0.055373
4153.95,0.055152
4157.29,0.05479
4160.62,0.054495
4163.96,0.054164
4167.31,0.053965
4170.66,0.053739
4174.02,0.053374
4177.39,0.053091
4180.75,0.052811
4184.13,0.052468
4187.51,0.052085
4190.89,0.051714
4194.28,0.051448
4197.68,0.051194
4201.08,0.051115
4204.49,0.050993
4207.9,0.050688
4211.32,0.050635
4214.74,0.050561
4218.17,0.050312
4221.61,0.050075
4225.05,0.049797
4228.5,0.049513
4231.95,0.049551
4235.4,0.049504
4238.87,0.049339
4242.34,0.049392
4245.81,0.049407
4249.29,0.049317
4252.78,0.049359
4256.27,0.049354
4259.77,0.049261
4263.27,0.049452
4266.78,0.04964
4270.29,0.049451
4273.81,0.049305
4277.34,0.049328
4280.87,0.049095
4284.41,0.048981
4287.95,0.04912
4291.5,0.049328
4295.06,0.049398
4298.62,0.049463
4302.19,0.049582
4305.76,0.049598
4309.34,0.049719
4312.92,0.049788
4316.52,0.049739
4320.11,0.049807
4323.72,0.050002
4327.32,0.050111
4330.94,0.050194
4334.56,0.050411
4338.19,0.05055
4341.82,0.050466
4345.46,0.050466
4349.11,0.050515
4352.76,0.050739
4356.42,0.05099
4360.08,0.051013
4363.75,0.051161
4367.43,0.051238
4371.11,0.051424
4374.8,0.051672
4378.49,0.051915
4382.19,0.052063
4385.9,0.052067
4389.61,0.052163
4393.33,0.052337
4397.06,0.052532
4400.79,0.052784
4404.53,0.053078
4408.28,0.053332
4412.03,0.053509
4415.79,0.053587
4419.55,0.053867
4423.32,0.054133
4427.1,0.054328
4430.88,0.054526
4434.68,0.054893
4438.47,0.055146
4442.28,0.05523
4446.08,0.055395
4449.9,0.055734
4453.72,0.056015
4457.55,0.056302
4461.39,0.05663
4465.23,0.05691
4469.08,0.057215
4472.94,0.057437
4476.8,0.057627
4480.67,0.057983
4484.55,0.05841
4488.43,0.058682
4492.32,0.058797
4496.21,0.058929
4500.12,0.059243
4504.03,0.059728
4507.94,0.060008
4511.87,0.060229
4515.8,0.060565
4519.73,0.06076
4523.68,0.060948
4527.63,0.061435
4531.59,0.061866
4535.55,0.062145
4539.52,0.062419
4543.5,0.06271
4547.49,0.062982
4551.48,0.063223
4555.48,0.063546
4559.49,0.063998
4563.5,0.064338
4567.52,0.064603
4571.55,0.064915
4575.58,0.065203
4579.63,0.065349
4583.67,0.065649
4587.73,0.066067
4591.79,0.06639
4595.86,0.066755
4599.94,0.067202
4604.03,0.067516
4608.12,0.067821
4612.22,0.068195
4616.33,0.068557
4620.44,0.068958
4624.56,0.069322
4628.69,0.069643
4632.83,0.069906
4636.97,0.07018
4641.12,0.070627
4645.28,0.071052
4649.45,0.071445
4653.62,0.071821
4657.8,0.072155
4661.99,0.0724
4666.19,0.072568
4670.39,0.072714
4674.6,0.072735
4678.82,0.07229
4683.05,0.071377
4687.28,0.070247
4691.52,0.069366
4695.77,0.069773
4700.03,0.071277
4704.3,0.072812
4708.57,0.073995
4712.85,0.074771
4717.14,0.075308
4721.43,0.075841
4725.74,0.076292
4730.05,0.07648
4734.37,0.076797
4738.7,0.077338
4743.03,0.077982
4747.38,0.078555
4751.73,0.079032
4756.09,0.07959
4760.45,0.080297
4764.83,0.081078
4769.21,0.081867
4773.6,0.082719
4778.0,0.083495
4782.41,0.084176
4786.83,0.084839
4791.25,0.085679
4795.68,0.086586
4800.13,0.087413
4804.57,0.088276
4809.03,0.089147
4813.5,0.090093
4817.97,0.090905
4822.45,0.091646
4826.94,0.092388
4831.44,0.093149
