Database of Origin,University of Winnipeg Spectrophotometer Facility
Sample Description,Carbonaceous chondrites - RELAB archive 8. Lab-heated carbonaceous chondrites
Other Information,Heated Ivuna 200C lamp18G
Date Added,2018-07-23 23:45:04.590456

Data ID,RLA_MET_40_8        
Sample ID,Ivuna
Mineral Name,Ivuna
Viewing Geometry,30/0/ 30
Resolution,5/ 0.6-129 nm
Material Class,CI1

Wavelength
305.0,0.020476
310.0,0.019455
315.0,0.020016
320.0,0.019725
325.0,0.019844
330.0,0.020254
335.0,0.020332
340.0,0.0202
345.0,0.020625
350.0,0.020746
355.0,0.020737
360.0,0.021054
365.0,0.021142
370.0,0.021211
375.0,0.021241
380.0,0.021447
385.0,0.021612
390.0,0.021744
395.0,0.021905
400.0,0.021941
405.0,0.022101
410.0,0.02241
415.0,0.022674
420.0,0.022821
425.0,0.022981
430.0,0.02301
435.0,0.023151
440.0,0.023274
445.0,0.023318
450.0,0.023284
455.0,0.023336
460.0,0.023358
465.0,0.023604
470.0,0.023524
475.0,0.02349
480.0,0.023631
485.0,0.023748
490.0,0.023739
495.0,0.023743
500.0,0.023919
505.0,0.02394
510.0,0.024085
515.0,0.024312
520.0,0.024309
525.0,0.024404
530.0,0.024668
535.0,0.024671
540.0,0.024773
545.0,0.024893
550.0,0.024798
555.0,0.025101
560.0,0.024982
565.0,0.025066
570.0,0.025168
575.0,0.025072
580.0,0.025301
585.0,0.025088
590.0,0.025245
595.0,0.025247
600.0,0.025286
605.0,0.025267
610.0,0.02548
615.0,0.025357
620.0,0.025475
625.0,0.02569
630.0,0.025383
635.0,0.025744
640.0,0.025569
645.0,0.025619
650.0,0.025627
655.0,0.025516
660.0,0.025772
665.0,0.025495
670.0,0.025575
675.0,0.025678
680.0,0.025407
685.0,0.025671
690.0,0.025568
695.0,0.025404
700.0,0.025464
705.0,0.02537
710.0,0.025329
715.0,0.025478
720.0,0.025237
725.0,0.025276
730.0,0.025407
735.0,0.025398
740.0,0.025173
745.0,0.025164
750.0,0.025403
755.0,0.025458
760.0,0.025362
765.0,0.025188
770.0,0.025212
775.0,0.025383
780.0,0.025375
785.0,0.025253
790.0,0.025208
795.0,0.025222
800.0,0.025051
805.0,0.025178
810.0,0.025352
815.0,0.025237
820.0,0.025154
825.0,0.025156
830.0,0.025202
835.0,0.02527
840.0,0.024976
845.0,0.024991
850.0,0.025182
855.0,0.024976
860.0,0.024953
865.0,0.024723
870.0,0.024886
875.0,0.024871
880.0,0.025318
885.0,0.025026
890.0,0.024871
895.0,0.024753
900.0,0.024682
905.0,0.024499
910.0,0.024504
915.0,0.024445
920.0,0.02418
925.0,0.024106
930.0,0.024264
935.0,0.024371
940.0,0.024281
945.0,0.024224
950.0,0.024149
955.0,0.024277
960.0,0.024373
965.0,0.024292
970.0,0.024252
975.0,0.024205
980.0,0.024296
985.0,0.024225
990.0,0.024261
995.0,0.024451
1000.0,0.024405
1005.0,0.024509
1010.0,0.024322
1015.0,0.024301
1020.0,0.02412
1025.0,0.024149
1030.0,0.024383
1035.0,0.024438
1040.0,0.024552
1045.0,0.024528
1050.0,0.024343
1055.0,0.024356
1060.0,0.024505
1065.0,0.024593
1070.0,0.024485
1075.0,0.024245
1080.0,0.023938
1085.0,0.023861
1090.0,0.023985
1095.0,0.024013
1100.0,0.024259
1105.0,0.024348
1110.0,0.024341
1115.0,0.024214
1120.0,0.024092
1125.0,0.024004
1130.0,0.024226
1135.0,0.024196
1140.0,0.024197
1145.0,0.024078
1150.0,0.024119
1155.0,0.024061
1160.0,0.024144
1165.0,0.024239
1170.0,0.024251
1175.0,0.024282
1180.0,0.024345
1185.0,0.024305
1190.0,0.024347
1195.0,0.024329
1200.0,0.024357
1205.0,0.024271
1210.0,0.024427
1215.0,0.02444
1220.0,0.024307
1225.0,0.02435
1230.0,0.024358
1235.0,0.02438
1240.0,0.024376
1245.0,0.024376
1250.0,0.024324
1255.0,0.024337
1260.0,0.024138
1265.0,0.024142
1270.0,0.024096
1275.0,0.024098
1280.0,0.024124
1285.0,0.024125
1290.0,0.024161
1295.0,0.024241
1300.0,0.024367
1305.0,0.024467
1310.0,0.024499
1315.0,0.024401
1320.0,0.024464
1325.0,0.024263
1330.0,0.024299
1335.0,0.024226
1340.0,0.024333
1345.0,0.024395
1350.0,0.024513
1355.0,0.024408
1360.0,0.024419
1365.0,0.024471
1370.0,0.024392
1375.0,0.024454
1380.0,0.024443
1385.0,0.024468
1390.0,0.02441
1395.0,0.024457
1400.0,0.024489
1405.0,0.024618
1410.0,0.024734
1415.0,0.024819
1420.0,0.024869
1425.0,0.024822
1430.0,0.024801
1435.0,0.024788
1440.0,0.024734
1445.0,0.024751
1450.0,0.024866
1455.0,0.024831
1460.0,0.024804
1465.0,0.024804
1470.0,0.024876
1475.0,0.02493
1480.0,0.02499
1485.0,0.025028
1490.0,0.025075
1495.0,0.025187
1500.0,0.025338
1505.0,0.025246
1510.0,0.025359
1515.0,0.025221
1520.0,0.025228
1525.0,0.025278
1530.0,0.025222
1535.0,0.025344
1540.0,0.025445
1545.0,0.02536
1550.0,0.025496
1555.0,0.025414
1560.0,0.025459
1565.0,0.025382
1570.0,0.02545
1575.0,0.025452
1580.0,0.025427
1585.0,0.025575
1590.0,0.02546
1595.0,0.025341
1600.0,0.025379
1605.0,0.025507
1610.0,0.025651
1615.0,0.025676
1620.0,0.025603
1625.0,0.025978
1630.0,0.026015
1635.0,0.026086
1640.0,0.026082
1645.0,0.026095
1650.0,0.026086
1655.0,0.025951
1660.0,0.025972
1665.0,0.026089
1670.0,0.025982
1675.0,0.025959
1680.0,0.02591
1685.0,0.025797
1690.0,0.025835
1695.0,0.025844
1700.0,0.026061
1705.0,0.026137
1710.0,0.026115
1715.0,0.026121
1720.0,0.026195
1725.0,0.026218
1730.0,0.026225
1735.0,0.026248
1740.0,0.026288
1745.0,0.026336
1750.0,0.026295
1755.0,0.026146
1760.0,0.02626
1765.0,0.026325
1770.0,0.026259
1775.0,0.026277
1780.0,0.026304
1785.0,0.026401
1790.0,0.026311
1795.0,0.0264
1800.0,0.026445
1805.0,0.026465
1810.0,0.026341
1815.0,0.026291
1820.0,0.026166
1825.0,0.026154
1830.0,0.026118
1835.0,0.02602
1840.0,0.026002
1845.0,0.025857
1850.0,0.025813
1855.0,0.025769
1860.0,0.025834
1865.0,0.025826
1870.0,0.025839
1875.0,0.026194
1880.0,0.026129
1885.0,0.026243
1890.0,0.026293
1895.0,0.026432
1900.0,0.026607
1905.0,0.026701
1910.0,0.026795
1915.0,0.02675
1920.0,0.026654
1925.0,0.026692
1930.0,0.026606
1935.0,0.026551
1940.0,0.026544
1945.0,0.026453
1950.0,0.026358
1955.0,0.026206
1960.0,0.02617
1965.0,0.026063
1970.0,0.026075
1975.0,0.026064
1980.0,0.025978
1985.0,0.02599
1990.0,0.026067
1995.0,0.026044
2000.0,0.026152
2005.0,0.026268
2010.0,0.026432
2015.0,0.026476
2020.0,0.026528
2025.0,0.026589
2030.0,0.026587
2035.0,0.026744
2040.0,0.026681
2045.0,0.026768
2050.0,0.026714
2055.0,0.026666
2060.0,0.026716
2065.0,0.026697
2070.0,0.026737
2075.0,0.026701
2080.0,0.026709
2085.0,0.026717
2090.0,0.026655
2095.0,0.02672
2100.0,0.026672
2105.0,0.0267
2110.0,0.026684
2115.0,0.026741
2120.0,0.026809
2125.0,0.026836
2130.0,0.026847
2135.0,0.026802
2140.0,0.026733
2145.0,0.026684
2150.0,0.026626
2155.0,0.026598
2160.0,0.026627
2165.0,0.026578
2170.0,0.026558
2175.0,0.026615
2180.0,0.026546
2185.0,0.026509
2190.0,0.026421
2195.0,0.0264
2200.0,0.026365
2205.0,0.026287
2210.0,0.026391
2215.0,0.02638
2220.0,0.026434
2225.0,0.026511
2230.0,0.026551
2235.0,0.026679
2240.0,0.026707
2245.0,0.026778
2250.0,0.026804
2255.0,0.026743
2260.0,0.02687
2265.0,0.026915
2270.0,0.027038
2275.0,0.02715
2280.0,0.027112
2285.0,0.027062
2290.0,0.027119
2295.0,0.027118
2300.0,0.027041
2305.0,0.027039
2310.0,0.026998
2315.0,0.026901
2320.0,0.026801
2325.0,0.026793
2330.0,0.026751
2335.0,0.026796
2340.0,0.026782
2345.0,0.026789
2350.0,0.026696
2355.0,0.026638
2360.0,0.02664
2365.0,0.026594
2370.0,0.026626
2375.0,0.026689
2380.0,0.026626
2385.0,0.026626
2390.0,0.026595
2395.0,0.026562
2400.0,0.026595
2405.0,0.026598
2410.0,0.026724
2415.0,0.026675
2420.0,0.026771
2425.0,0.026806
2430.0,0.026755
2435.0,0.026707
2440.0,0.026758
2445.0,0.026695
2450.0,0.02683
2455.0,0.026898
2460.0,0.026882
2465.0,0.026882
2470.0,0.026786
2475.0,0.02671
2480.0,0.026631
2485.0,0.026629
2490.0,0.026616
2495.0,0.026769
2500.0,0.026714
2502.0,0.026752
2503.2,0.026526
2504.41,0.026284
2505.62,0.026263
2506.83,0.026293
2508.05,0.026512
2509.26,0.026804
2510.48,0.026745
2511.69,0.026607
2512.91,0.026726
2514.13,0.026691
2515.35,0.026631
2516.57,0.026578
2517.79,0.026551
2519.02,0.026539
2520.24,0.026505
2521.47,0.02659
2522.69,0.026678
2523.92,0.026572
2525.15,0.026307
2526.38,0.026197
2527.61,0.026516
2528.85,0.026564
2530.08,0.026318
2531.32,0.026495
2532.55,0.026917
2533.79,0.026978
2535.03,0.026846
2536.27,0.026763
2537.51,0.026741
2538.75,0.026714
2540.0,0.026733
2541.24,0.026612
2542.49,0.026479
2543.74,0.026597
2544.99,0.026675
2546.24,0.026661
2547.49,0.026638
2548.74,0.026727
2549.99,0.026827
2551.25,0.026801
2552.5,0.026547
2553.76,0.026514
2555.02,0.026785
2556.28,0.026869
2557.54,0.026715
2558.8,0.02677
2560.07,0.026964
2561.33,0.026993
2562.6,0.026672
2563.86,0.026462
2565.13,0.026571
2566.4,0.026694
2567.67,0.026763
2568.95,0.026829
2570.22,0.026995
2571.5,0.026975
2572.77,0.026675
2574.05,0.026668
2575.33,0.026913
2576.61,0.026948
2577.89,0.026852
2579.17,0.026964
2580.46,0.026953
2581.74,0.026831
2583.03,0.026817
2584.31,0.026841
2585.6,0.026818
2586.89,0.026809
2588.19,0.026859
2589.48,0.026713
2590.77,0.026869
2592.07,0.026939
2593.36,0.026853
2594.66,0.026933
2595.96,0.027048
2597.26,0.027147
2598.56,0.027246
2599.87,0.027172
2601.17,0.026969
2602.48,0.026964
2603.78,0.027163
2605.09,0.027165
2606.4,0.02695
2607.71,0.026826
2609.03,0.026817
2610.34,0.026961
2611.66,0.026947
2612.97,0.026862
2614.29,0.026772
2615.61,0.026828
2616.93,0.026935
2618.25,0.026808
2619.57,0.026921
2620.9,0.026961
2622.22,0.026814
2623.55,0.026919
2624.88,0.027203
2626.21,0.027317
2627.54,0.027099
2628.87,0.027036
2630.21,0.027127
2631.54,0.027056
2632.88,0.027064
2634.21,0.027279
2635.55,0.02725
2636.89,0.02702
2638.24,0.026854
2639.58,0.02685
2640.92,0.026844
2642.27,0.026938
2643.62,0.027098
2644.97,0.027088
2646.32,0.027087
2647.67,0.026898
2649.02,0.026875
2650.38,0.027017
2651.73,0.026958
2653.09,0.026992
2654.45,0.027111
2655.81,0.027108
2657.17,0.027072
2658.53,0.027038
2659.89,0.027081
2661.26,0.027018
2662.63,0.026937
2664.0,0.026842
2665.36,0.026901
2666.74,0.0269
2668.11,0.026795
2669.48,0.026736
2670.86,0.026851
2672.23,0.026844
2673.61,0.026821
2674.99,0.026754
2676.37,0.026734
2677.76,0.026675
2679.14,0.026635
2680.52,0.026535
2681.91,0.026381
2683.3,0.026246
2684.69,0.02598
2686.08,0.025654
2687.47,0.025402
2688.87,0.024995
2690.26,0.024853
2691.66,0.024914
2693.06,0.024652
2694.46,0.024274
2695.86,0.024133
2697.26,0.023876
2698.66,0.023494
2700.07,0.023214
2701.48,0.02309
2702.89,0.02292
2704.3,0.022609
2705.71,0.02241
2707.12,0.022239
2708.53,0.02218
2709.95,0.022043
2711.37,0.022013
2712.79,0.02208
2714.21,0.022061
2715.63,0.022182
2717.05,0.022114
2718.48,0.022072
2719.9,0.022214
2721.33,0.022335
2722.76,0.022431
2724.19,0.022494
2725.62,0.022379
2727.06,0.022313
2728.49,0.022356
2729.93,0.022348
2731.37,0.022555
2732.81,0.022854
2734.25,0.022919
2735.69,0.022848
2737.14,0.022717
2738.58,0.022921
2740.03,0.023078
2741.48,0.023027
2742.93,0.023022
2744.38,0.023096
2745.83,0.022978
2747.29,0.022848
2748.75,0.022923
2750.2,0.02293
2751.66,0.022771
2753.13,0.022685
2754.59,0.022814
2756.05,0.022968
2757.52,0.022955
2758.99,0.022816
2760.46,0.022783
2761.93,0.022878
2763.4,0.022836
2764.87,0.02275
2766.35,0.022736
2767.82,0.022697
2769.3,0.022744
2770.78,0.02281
2772.26,0.022857
2773.75,0.022793
2775.23,0.02289
2776.72,0.022967
2778.21,0.022833
2779.7,0.022786
2781.19,0.022675
2782.68,0.02272
2784.18,0.022828
2785.67,0.022906
2787.17,0.023016
2788.67,0.02302
2790.17,0.022805
2791.67,0.022706
2793.18,0.02279
2794.68,0.022734
2796.19,0.022741
2797.7,0.022844
2799.21,0.022816
2800.72,0.022757
2802.24,0.022585
2803.75,0.022656
2805.27,0.022734
2806.79,0.022617
2808.31,0.022535
2809.83,0.022712
2811.35,0.022783
2812.88,0.022758
2814.41,0.022742
2815.93,0.022629
2817.46,0.022662
2819.0,0.022771
2820.53,0.022779
2822.07,0.02278
2823.6,0.022822
2825.14,0.022907
2826.68,0.022778
2828.22,0.022572
2829.77,0.022567
2831.31,0.022652
2832.86,0.022719
2834.41,0.022698
2835.96,0.022694
2837.51,0.022876
2839.07,0.022825
2840.62,0.022774
2842.18,0.022825
2843.74,0.022864
2845.3,0.022768
2846.86,0.022662
2848.43,0.022697
2849.99,0.022728
2851.56,0.022776
2853.13,0.022868
2854.7,0.022846
2856.27,0.022888
2857.85,0.022932
2859.42,0.022947
2861.0,0.022861
2862.58,0.022785
2864.16,0.022721
2865.75,0.022793
2867.33,0.022877
2868.92,0.022965
2870.51,0.022908
2872.1,0.022841
2873.69,0.022861
2875.28,0.022826
2876.88,0.02285
2878.48,0.022879
2880.07,0.022716
2881.68,0.022574
2883.28,0.022708
2884.88,0.022812
2886.49,0.02285
2888.1,0.022831
2889.71,0.022821
2891.32,0.022967
2892.93,0.023058
2894.55,0.022989
2896.16,0.022865
2897.78,0.022837
2899.4,0.022912
2901.03,0.022963
2902.65,0.022942
2904.28,0.022997
2905.91,0.022958
2907.54,0.022981
2909.17,0.023116
2910.8,0.023011
2912.44,0.022792
2914.07,0.022848
2915.71,0.022993
2917.35,0.022979
2918.99,0.022964
2920.64,0.022911
2922.29,0.022946
2923.93,0.023056
2925.58,0.023159
2927.24,0.023109
2928.89,0.023068
2930.55,0.023113
2932.2,0.023016
2933.86,0.022901
2935.52,0.022892
2937.19,0.022904
2938.85,0.022907
2940.52,0.022922
2942.19,0.022876
2943.86,0.023095
2945.53,0.023183
2947.21,0.023037
2948.88,0.023046
2950.56,0.023018
2952.24,0.023089
2953.92,0.023094
2955.61,0.023054
2957.29,0.023062
2958.98,0.02304
2960.67,0.023089
2962.36,0.023118
2964.06,0.023084
2965.75,0.023007
2967.45,0.023025
2969.15,0.023185
2970.85,0.023211
2972.55,0.023143
2974.26,0.023195
2975.97,0.023141
2977.68,0.023075
2979.39,0.023111
2981.1,0.023224
2982.82,0.023299
2984.53,0.02326
2986.25,0.023126
2987.97,0.023083
2989.7,0.023122
2991.42,0.023147
2993.15,0.023226
2994.88,0.023247
2996.61,0.02314
2998.34,0.023
3000.08,0.022957
3001.82,0.0231
3003.55,0.023199
3005.3,0.023187
3007.04,0.023276
3008.78,0.023335
3010.53,0.023232
3012.28,0.023076
3014.03,0.023033
3015.79,0.023088
3017.54,0.023107
3019.3,0.023194
3021.06,0.023281
3022.82,0.023292
3024.58,0.023293
3026.35,0.023283
3028.12,0.023284
3029.89,0.023363
3031.66,0.023433
3033.43,0.023414
3035.21,0.023452
3036.99,0.023458
3038.77,0.02335
3040.55,0.023307
3042.33,0.023352
3044.12,0.023357
3045.91,0.023498
3047.7,0.023547
3049.49,0.023453
3051.29,0.023446
3053.08,0.023433
3054.88,0.023428
3056.68,0.023399
3058.49,0.023361
3060.29,0.023526
3062.1,0.023601
3063.91,0.023517
3065.72,0.023401
3067.54,0.023445
3069.35,0.023489
3071.17,0.023494
3072.99,0.023428
3074.81,0.023425
3076.64,0.023589
3078.47,0.023656
3080.29,0.023588
3082.13,0.023577
3083.96,0.023554
3085.79,0.023583
3087.63,0.023623
3089.47,0.023584
3091.31,0.023558
3093.16,0.023438
3095.01,0.023404
3096.85,0.023525
3098.71,0.023613
3100.56,0.023628
3102.41,0.023733
3104.27,0.023786
3106.13,0.023683
3107.99,0.023601
3109.86,0.023698
3111.73,0.02379
3113.59,0.0238
3115.47,0.023794
3117.34,0.023808
3119.21,0.023788
3121.09,0.023772
3122.97,0.023732
3124.86,0.023787
3126.74,0.023893
3128.63,0.023935
3130.52,0.023982
3132.41,0.023982
3134.3,0.023948
3136.2,0.024001
3138.1,0.024084
3140.0,0.024102
3141.9,0.024165
3143.81,0.024197
3145.71,0.024198
3147.62,0.024158
3149.54,0.024145
3151.45,0.02418
3153.37,0.024196
3155.29,0.024182
3157.21,0.024188
3159.13,0.024185
3161.06,0.024232
3162.99,0.024307
3164.92,0.024427
3166.85,0.02444
3168.79,0.024421
3170.72,0.024557
3172.67,0.02451
3174.61,0.024366
3176.55,0.024393
3178.5,0.02451
3180.45,0.024502
3182.4,0.024545
3184.36,0.024641
3186.32,0.02462
3188.27,0.024588
3190.24,0.024602
3192.2,0.024706
3194.17,0.024739
3196.14,0.024751
3198.11,0.024863
3200.08,0.024876
3202.06,0.024784
3204.04,0.024721
3206.02,0.024749
3208.0,0.024821
3209.99,0.024854
3211.98,0.024917
3213.97,0.02484
3215.96,0.024818
3217.96,0.024949
3219.96,0.025035
3221.96,0.025043
3223.96,0.025035
3225.97,0.025015
3227.98,0.024965
3229.99,0.024998
3232.0,0.025018
3234.02,0.025014
3236.04,0.025069
3238.06,0.025137
3240.08,0.025129
3242.11,0.025103
3244.14,0.02516
3246.17,0.025208
3248.2,0.025171
3250.24,0.025186
3252.28,0.025235
3254.32,0.025269
3256.37,0.025171
3258.41,0.025134
3260.46,0.025183
3262.51,0.025254
3264.57,0.025285
3266.63,0.025302
3268.69,0.025356
3270.75,0.025342
3272.81,0.025284
3274.88,0.025328
3276.95,0.025438
3279.02,0.02542
3281.1,0.025464
3283.18,0.025549
3285.26,0.025526
3287.34,0.025541
3289.43,0.025644
3291.51,0.025667
3293.61,0.02568
3295.7,0.025683
3297.8,0.025629
3299.9,0.025623
3302.0,0.025623
3304.1,0.025692
3306.21,0.025789
3308.32,0.025811
3310.43,0.025768
3312.55,0.025726
3314.66,0.025733
3316.79,0.025858
3318.91,0.025955
3321.03,0.025929
3323.16,0.025909
3325.29,0.025856
3327.43,0.025856
3329.57,0.025887
3331.71,0.025909
3333.85,0.025939
3335.99,0.025898
3338.14,0.025885
3340.29,0.025935
3342.45,0.025944
3344.6,0.02588
3346.76,0.025844
3348.92,0.025896
3351.09,0.025891
3353.26,0.025892
3355.43,0.025896
3357.6,0.026034
3359.78,0.026087
3361.96,0.025917
3364.14,0.025801
3366.32,0.025736
3368.51,0.025783
3370.7,0.025809
3372.89,0.025822
3375.09,0.025831
3377.29,0.025836
3379.49,0.025787
3381.69,0.025818
3383.9,0.025866
3386.11,0.025826
3388.32,0.025903
3390.54,0.025965
3392.76,0.026019
3394.98,0.026119
3397.21,0.026172
3399.43,0.026075
3401.66,0.026
3403.9,0.025942
3406.13,0.025926
3408.37,0.025871
3410.61,0.025844
3412.86,0.025874
3415.11,0.025876
3417.36,0.02586
3419.61,0.025858
3421.87,0.025904
3424.13,0.02589
3426.39,0.025949
3428.66,0.026007
3430.93,0.02615
3433.2,0.026321
3435.48,0.026416
3437.76,0.026463
3440.04,0.026418
3442.32,0.026381
3444.61,0.026417
3446.9,0.02655
3449.19,0.026681
3451.49,0.02673
3453.79,0.026722
3456.09,0.026671
3458.4,0.026602
3460.7,0.026631
3463.02,0.026696
3465.33,0.02675
3467.65,0.026834
3469.97,0.026818
3472.29,0.026761
3474.62,0.026832
3476.95,0.026904
3479.29,0.026892
3481.62,0.02684
3483.96,0.026812
3486.3,0.026791
3488.65,0.026849
3491.0,0.026954
3493.35,0.026937
3495.71,0.026893
3498.07,0.026944
3500.43,0.026918
3502.79,0.026872
3505.16,0.026954
3507.53,0.027021
3509.91,0.027093
3512.29,0.027196
3514.67,0.027269
3517.05,0.027349
3519.44,0.027431
3521.83,0.027486
3524.23,0.027559
3526.62,0.02765
3529.02,0.027695
3531.43,0.027738
3533.83,0.02771
3536.24,0.02775
3538.66,0.027766
3541.08,0.027802
3543.5,0.027859
3545.92,0.027907
3548.35,0.027884
3550.78,0.027882
3553.21,0.027887
3555.65,0.027955
3558.09,0.028013
3560.53,0.028034
3562.98,0.028107
3565.43,0.028102
3567.88,0.028044
3570.34,0.028111
3572.8,0.02819
3575.27,0.028137
3577.73,0.028126
3580.2,0.028198
3582.68,0.028249
3585.16,0.028279
3587.64,0.028296
3590.12,0.028224
3592.61,0.028208
3595.1,0.028317
3597.6,0.028353
3600.09,0.028386
3602.6,0.028409
3605.1,0.028435
3607.61,0.028447
3610.12,0.028458
3612.64,0.028417
3615.16,0.028399
3617.68,0.028452
3620.21,0.028465
3622.74,0.028551
3625.27,0.02861
3627.81,0.02851
3630.35,0.028524
3632.89,0.028624
3635.44,0.028655
3637.99,0.028662
3640.54,0.02867
3643.1,0.028704
3645.66,0.028728
3648.23,0.028675
3650.8,0.028717
3653.37,0.028775
3655.95,0.028775
3658.53,0.028844
3661.11,0.028799
3663.7,0.028828
3666.29,0.028851
3668.89,0.028817
3671.48,0.028798
3674.09,0.028804
3676.69,0.028859
3679.3,0.028884
3681.91,0.028928
3684.53,0.028969
3687.15,0.028983
3689.78,0.028946
3692.4,0.028931
3695.04,0.028997
3697.67,0.029013
3700.31,0.029015
3702.95,0.029059
3705.6,0.029181
3708.25,0.02918
3710.91,0.029142
3713.56,0.0291
3716.23,0.029119
3718.89,0.029255
3721.56,0.029356
3724.23,0.029329
3726.91,0.029292
3729.59,0.029264
3732.28,0.029289
3734.97,0.0293
3737.66,0.029341
3740.36,0.029357
3743.06,0.029345
3745.76,0.029412
3748.47,0.029402
