Database of Origin,University of Winnipeg Spectrophotometer Facility
Sample Description,Carbonaceous chondrites - RELAB archive 7. Ungrouped chondrites and ATCCs
Other Information,c1mp24
Date Added,2018-07-23 23:45:04.087047

Data ID,RLA_MET_38_40       
Sample ID,LEW85311/36
Mineral Name,Carbonaceous Chondrite
Grain Size,<125 um
Viewing Geometry,30/0
Material Class,CM-heated

Wavelength
305.0,0.013085
310.0,0.015137
315.0,0.017689
320.0,0.017828
325.0,0.017499
330.0,0.018189
335.0,0.017905
340.0,0.018782
345.0,0.018835
350.0,0.019021
355.0,0.019564
360.0,0.020253
365.0,0.021004
370.0,0.021677
375.0,0.022666
380.0,0.023315
385.0,0.023914
390.0,0.0245
395.0,0.02537
400.0,0.026309
405.0,0.026706
410.0,0.027582
415.0,0.028222
420.0,0.028816
425.0,0.02951
430.0,0.030196
435.0,0.030752
440.0,0.031423
445.0,0.031886
450.0,0.03236
455.0,0.032563
460.0,0.033143
465.0,0.033505
470.0,0.033768
475.0,0.034173
480.0,0.034653
485.0,0.035093
490.0,0.035542
495.0,0.036027
500.0,0.036268
505.0,0.036587
510.0,0.037016
515.0,0.03734
520.0,0.037789
525.0,0.038211
530.0,0.038358
535.0,0.038662
540.0,0.039048
545.0,0.039174
550.0,0.039152
555.0,0.0393
560.0,0.039398
565.0,0.039528
570.0,0.039635
575.0,0.039777
580.0,0.039779
585.0,0.039811
590.0,0.039739
595.0,0.039775
600.0,0.039792
605.0,0.039911
610.0,0.03992
615.0,0.039898
620.0,0.039974
625.0,0.040034
630.0,0.040027
635.0,0.039862
640.0,0.039957
645.0,0.039873
650.0,0.039836
655.0,0.039763
660.0,0.039911
665.0,0.039893
670.0,0.039609
675.0,0.039664
680.0,0.039629
685.0,0.039656
690.0,0.039533
695.0,0.039562
700.0,0.039834
705.0,0.039713
710.0,0.039854
715.0,0.039907
720.0,0.039808
725.0,0.03997
730.0,0.040004
735.0,0.040251
740.0,0.040344
745.0,0.040574
750.0,0.040716
755.0,0.040906
760.0,0.041291
765.0,0.041462
770.0,0.041692
775.0,0.04172
780.0,0.04195
785.0,0.042076
790.0,0.042342
795.0,0.042534
800.0,0.042777
805.0,0.04299
810.0,0.043281
815.0,0.043416
820.0,0.043424
825.0,0.043641
830.0,0.043628
835.0,0.043659
840.0,0.043691
845.0,0.043742
850.0,0.043798
855.0,0.043643
860.0,0.043605
865.0,0.043466
870.0,0.04375
875.0,0.043553
880.0,0.043666
885.0,0.043716
890.0,0.043708
895.0,0.043614
900.0,0.043588
905.0,0.043729
910.0,0.043631
915.0,0.043533
920.0,0.043414
925.0,0.043346
930.0,0.043618
935.0,0.043624
940.0,0.043582
945.0,0.043665
950.0,0.043648
955.0,0.04362
960.0,0.043803
965.0,0.04373
970.0,0.043972
975.0,0.043885
980.0,0.043869
985.0,0.043999
990.0,0.044002
995.0,0.044129
1000.0,0.044212
1005.0,0.044338
1010.0,0.044078
1015.0,0.044359
1020.0,0.04448
1025.0,0.044349
1030.0,0.044423
1035.0,0.04461
1040.0,0.044489
1045.0,0.044566
1050.0,0.044706
1055.0,0.044951
1060.0,0.044711
1065.0,0.044471
1070.0,0.044641
1075.0,0.044649
1080.0,0.044553
1085.0,0.044827
1090.0,0.04474
1095.0,0.044781
1100.0,0.044724
1105.0,0.044906
1110.0,0.04497
1115.0,0.045043
1120.0,0.045084
1125.0,0.045123
1130.0,0.045286
1135.0,0.045172
1140.0,0.045354
1145.0,0.045309
1150.0,0.045299
1155.0,0.045435
1160.0,0.045503
1165.0,0.045709
1170.0,0.04556
1175.0,0.045727
1180.0,0.045891
1185.0,0.045903
1190.0,0.046021
1195.0,0.046154
1200.0,0.046052
1205.0,0.046188
1210.0,0.046243
1215.0,0.04639
1220.0,0.046506
1225.0,0.046524
1230.0,0.046545
1235.0,0.046477
1240.0,0.046517
1245.0,0.046607
1250.0,0.046634
1255.0,0.046822
1260.0,0.046894
1265.0,0.047038
1270.0,0.04705
1275.0,0.047137
1280.0,0.047193
1285.0,0.047349
1290.0,0.047526
1295.0,0.047651
1300.0,0.047577
1305.0,0.047596
1310.0,0.047813
1315.0,0.047901
1320.0,0.047985
1325.0,0.048127
1330.0,0.048288
1335.0,0.04834
1340.0,0.048449
1345.0,0.048396
1350.0,0.048528
1355.0,0.048604
1360.0,0.04844
1365.0,0.048794
1370.0,0.048835
1375.0,0.049029
1380.0,0.048873
1385.0,0.049306
1390.0,0.049329
1395.0,0.049202
1400.0,0.049145
1405.0,0.049381
1410.0,0.049553
1415.0,0.0497
1420.0,0.049681
1425.0,0.049709
1430.0,0.049808
1435.0,0.049863
1440.0,0.049969
1445.0,0.050123
1450.0,0.050184
1455.0,0.050257
1460.0,0.050332
1465.0,0.050445
1470.0,0.050452
1475.0,0.050569
1480.0,0.050703
1485.0,0.050655
1490.0,0.050712
1495.0,0.050832
1500.0,0.050884
1505.0,0.050974
1510.0,0.051042
1515.0,0.051196
1520.0,0.051036
1525.0,0.051268
1530.0,0.051232
1535.0,0.051412
1540.0,0.051392
1545.0,0.051289
1550.0,0.051451
1555.0,0.051643
1560.0,0.051595
1565.0,0.051661
1570.0,0.051917
1575.0,0.052071
1580.0,0.051977
1585.0,0.052156
1590.0,0.052128
1595.0,0.052222
1600.0,0.05227
1605.0,0.052201
1610.0,0.052397
1615.0,0.052515
1620.0,0.052576
1625.0,0.052615
1630.0,0.052602
1635.0,0.052722
1640.0,0.052868
1645.0,0.052775
1650.0,0.05282
1655.0,0.052891
1660.0,0.053093
1665.0,0.053118
1670.0,0.05313
1675.0,0.053164
1680.0,0.053339
1685.0,0.053381
1690.0,0.053356
1695.0,0.053466
1700.0,0.053489
1705.0,0.053499
1710.0,0.053571
1715.0,0.053782
1720.0,0.053862
1725.0,0.053931
1730.0,0.053938
1735.0,0.053995
1740.0,0.054044
1745.0,0.054106
1750.0,0.054167
1755.0,0.054234
1760.0,0.054295
1765.0,0.054383
1770.0,0.054423
1775.0,0.054564
1780.0,0.054647
1785.0,0.05456
1790.0,0.054636
1795.0,0.054708
1800.0,0.05465
1805.0,0.054733
1810.0,0.05474
1815.0,0.054763
1820.0,0.054753
1825.0,0.054887
1830.0,0.054955
1835.0,0.054959
1840.0,0.055059
1845.0,0.055212
1850.0,0.055246
1855.0,0.055302
1860.0,0.055282
1865.0,0.055507
1870.0,0.055293
1875.0,0.055393
1880.0,0.055614
1885.0,0.055404
1890.0,0.055443
1895.0,0.055512
1900.0,0.055539
1905.0,0.055632
1910.0,0.055765
1915.0,0.055747
1920.0,0.055576
1925.0,0.055826
1930.0,0.055676
1935.0,0.055778
1940.0,0.055793
1945.0,0.055769
1950.0,0.055828
1955.0,0.055846
1960.0,0.055935
1965.0,0.056052
1970.0,0.056036
1975.0,0.056116
1980.0,0.0562
1985.0,0.056326
1990.0,0.056315
1995.0,0.056512
2000.0,0.056428
2005.0,0.056467
2010.0,0.056451
2015.0,0.056508
2020.0,0.056533
2025.0,0.056481
2030.0,0.056522
2035.0,0.056684
2040.0,0.056848
2045.0,0.056892
2050.0,0.056852
2055.0,0.056877
2060.0,0.057005
2065.0,0.05697
2070.0,0.057029
2075.0,0.057155
2080.0,0.057269
2085.0,0.057248
2090.0,0.057216
2095.0,0.05726
2100.0,0.057609
2105.0,0.057384
2110.0,0.057314
2115.0,0.05726
2120.0,0.057292
2125.0,0.057351
2130.0,0.057372
2135.0,0.057247
2140.0,0.057393
2145.0,0.057282
2150.0,0.057384
2155.0,0.057274
2160.0,0.057307
2165.0,0.057397
2170.0,0.057355
2175.0,0.057291
2180.0,0.057374
2185.0,0.057394
2190.0,0.057624
2195.0,0.057605
2200.0,0.057582
2205.0,0.057621
2210.0,0.05777
2215.0,0.057731
2220.0,0.057769
2225.0,0.057828
2230.0,0.057871
2235.0,0.057908
2240.0,0.0579
2245.0,0.057997
2250.0,0.058065
2255.0,0.058101
2260.0,0.05811
2265.0,0.058321
2270.0,0.058274
2275.0,0.058288
2280.0,0.058196
2285.0,0.058283
2290.0,0.058295
2295.0,0.058456
2300.0,0.058525
2305.0,0.058554
2310.0,0.058437
2315.0,0.058546
2320.0,0.058544
2325.0,0.058591
2330.0,0.058582
2335.0,0.058458
2340.0,0.058428
2345.0,0.058655
2350.0,0.058706
2355.0,0.058583
2360.0,0.058593
2365.0,0.058524
2370.0,0.058496
2375.0,0.058432
2380.0,0.058651
2385.0,0.058628
2390.0,0.058637
2395.0,0.058703
2400.0,0.058702
2405.0,0.058748
2410.0,0.058687
2415.0,0.058764
2420.0,0.058519
2425.0,0.058685
2430.0,0.058793
2435.0,0.058769
2440.0,0.058808
2445.0,0.058787
2450.0,0.058872
2455.0,0.058831
2460.0,0.059012
2465.0,0.058946
2470.0,0.05899
2475.0,0.058983
2480.0,0.059112
2485.0,0.059269
2490.0,0.059261
2495.0,0.059246
2500.0,0.059314
2505.0,0.05932
2510.0,0.059149
2515.0,0.059279
2520.0,0.059418
2525.0,0.059499
2530.0,0.059972
2535.0,0.059749
2540.0,0.059911
2545.0,0.059745
2550.0,0.059661
2555.0,0.059848
2560.0,0.06025
2565.0,0.060052
2570.0,0.059817
2575.0,0.059805
2580.0,0.059921
2585.0,0.059606
2590.0,0.059798
2595.0,0.059577
2600.0,0.059675
