Database of Origin,University of Winnipeg Spectrophotometer Facility
Sample Description,Carbonaceous chondrites - RELAB archive 8. Lab-heated carbonaceous chondrites
Other Information,ncmb64E Heated Murchison 800C
Date Added,2018-07-23 23:45:15.997320

Data ID,RLA_MET_41_5        
Sample ID,Murchison
Mineral Name,Murchison
Grain Size,<63 um
Viewing Geometry,30/0/30
Resolution,5/ 0.6-129 nm
Material Class,CM2.5/2.7

Wavelength
305.0,0.035095
310.0,0.036114
315.0,0.036761
320.0,0.039401
325.0,0.038903
330.0,0.039499
335.0,0.039808
340.0,0.03991
345.0,0.039403
350.0,0.039913
355.0,0.040001
360.0,0.040262
365.0,0.040496
370.0,0.040864
375.0,0.040974
380.0,0.040923
385.0,0.040935
390.0,0.040937
395.0,0.041263
400.0,0.04083
405.0,0.041034
410.0,0.040784
415.0,0.040919
420.0,0.040795
425.0,0.040708
430.0,0.041073
435.0,0.040994
440.0,0.040965
445.0,0.040934
450.0,0.040951
455.0,0.04072
460.0,0.040764
465.0,0.040857
470.0,0.040874
475.0,0.040758
480.0,0.04084
485.0,0.040822
490.0,0.040859
495.0,0.040852
500.0,0.04083
505.0,0.040843
510.0,0.040983
515.0,0.041047
520.0,0.041031
525.0,0.04113
530.0,0.041234
535.0,0.041359
540.0,0.041361
545.0,0.041462
550.0,0.04153
555.0,0.041647
560.0,0.041648
565.0,0.041754
570.0,0.041868
575.0,0.041859
580.0,0.041907
585.0,0.04203
590.0,0.042073
595.0,0.042174
600.0,0.042213
605.0,0.042269
610.0,0.042521
615.0,0.042658
620.0,0.042754
625.0,0.042975
630.0,0.043082
635.0,0.043238
640.0,0.043224
645.0,0.043419
650.0,0.043387
655.0,0.043406
660.0,0.043429
665.0,0.04349
670.0,0.043559
675.0,0.043673
680.0,0.043686
685.0,0.043678
690.0,0.043804
695.0,0.043863
700.0,0.043895
705.0,0.043962
710.0,0.044064
715.0,0.044199
720.0,0.044274
725.0,0.044382
730.0,0.044256
735.0,0.044471
740.0,0.044468
745.0,0.044671
750.0,0.044645
755.0,0.044876
760.0,0.04511
765.0,0.045125
770.0,0.045263
775.0,0.04532
780.0,0.045411
785.0,0.045365
790.0,0.045392
795.0,0.04556
800.0,0.045573
805.0,0.045605
810.0,0.045692
815.0,0.045638
820.0,0.045693
825.0,0.045628
830.0,0.045736
835.0,0.045815
840.0,0.045975
845.0,0.045948
850.0,0.046029
855.0,0.046057
860.0,0.046045
865.0,0.045833
870.0,0.04586
875.0,0.046274
880.0,0.046116
885.0,0.046165
890.0,0.046596
895.0,0.046452
900.0,0.04616
905.0,0.046404
910.0,0.04654
915.0,0.046408
920.0,0.046609
925.0,0.046584
930.0,0.046633
935.0,0.046528
940.0,0.04664
945.0,0.046895
950.0,0.046605
955.0,0.046802
960.0,0.046894
965.0,0.047018
970.0,0.04706
975.0,0.047017
980.0,0.047122
985.0,0.047253
990.0,0.047287
995.0,0.047159
1000.0,0.047397
1005.0,0.047439
1010.0,0.047473
1015.0,0.047534
1020.0,0.047723
1025.0,0.047585
1030.0,0.047636
1035.0,0.047862
1040.0,0.047941
1045.0,0.047787
1050.0,0.048074
1055.0,0.048012
1060.0,0.047987
1065.0,0.047983
1070.0,0.04797
1075.0,0.048246
1080.0,0.048442
1085.0,0.048461
1090.0,0.048374
1095.0,0.048501
1100.0,0.048571
1105.0,0.048644
1110.0,0.048544
1115.0,0.048742
1120.0,0.048857
1125.0,0.048933
1130.0,0.049014
1135.0,0.049076
1140.0,0.049066
1145.0,0.049042
1150.0,0.049338
1155.0,0.049386
1160.0,0.049244
1165.0,0.049463
1170.0,0.04958
1175.0,0.049521
1180.0,0.049514
1185.0,0.049676
1190.0,0.049675
1195.0,0.049858
1200.0,0.04977
1205.0,0.049913
1210.0,0.05004
1215.0,0.05012
1220.0,0.050221
1225.0,0.050086
1230.0,0.050137
1235.0,0.050422
1240.0,0.050397
1245.0,0.050335
1250.0,0.050327
1255.0,0.050371
1260.0,0.050417
1265.0,0.050382
1270.0,0.050471
1275.0,0.050643
1280.0,0.050544
1285.0,0.050535
1290.0,0.050606
1295.0,0.050806
1300.0,0.050794
1305.0,0.050911
1310.0,0.050802
1315.0,0.050937
1320.0,0.050988
1325.0,0.051132
1330.0,0.051011
1335.0,0.051181
1340.0,0.051227
1345.0,0.051361
1350.0,0.051318
1355.0,0.051327
1360.0,0.051033
1365.0,0.051572
1370.0,0.051773
1375.0,0.051421
1380.0,0.051247
1385.0,0.052019
1390.0,0.051667
1395.0,0.051948
1400.0,0.052069
1405.0,0.051851
1410.0,0.052287
1415.0,0.052266
1420.0,0.052177
1425.0,0.052156
1430.0,0.052244
1435.0,0.05242
1440.0,0.052392
1445.0,0.052488
1450.0,0.052486
1455.0,0.052411
1460.0,0.052674
1465.0,0.052622
1470.0,0.052811
1475.0,0.05286
1480.0,0.052913
1485.0,0.052831
1490.0,0.052961
1495.0,0.05304
1500.0,0.053157
1505.0,0.053122
1510.0,0.05324
1515.0,0.053034
1520.0,0.053161
1525.0,0.053275
1530.0,0.053351
1535.0,0.053351
1540.0,0.05346
1545.0,0.053501
1550.0,0.053568
1555.0,0.053749
1560.0,0.053793
1565.0,0.053724
1570.0,0.053821
1575.0,0.054018
1580.0,0.054031
1585.0,0.054011
1590.0,0.05424
1595.0,0.053958
1600.0,0.054069
1605.0,0.054057
1610.0,0.054066
1615.0,0.054039
1620.0,0.054328
1625.0,0.054453
1630.0,0.05442
1635.0,0.054501
1640.0,0.054544
1645.0,0.054614
1650.0,0.054742
1655.0,0.054704
1660.0,0.054817
1665.0,0.054842
1670.0,0.054797
1675.0,0.054936
1680.0,0.055071
1685.0,0.054829
1690.0,0.054833
1695.0,0.05507
1700.0,0.054988
1705.0,0.055056
1710.0,0.055057
1715.0,0.055045
1720.0,0.055181
1725.0,0.055121
1730.0,0.055183
1735.0,0.055167
1740.0,0.05515
1745.0,0.055272
1750.0,0.055339
1755.0,0.055299
1760.0,0.055481
1765.0,0.055412
1770.0,0.055381
1775.0,0.055446
1780.0,0.055548
1785.0,0.055572
1790.0,0.05556
1795.0,0.055623
1800.0,0.055469
1805.0,0.055604
1810.0,0.055464
1815.0,0.055364
1820.0,0.055825
1825.0,0.055512
1830.0,0.05586
1835.0,0.055493
1840.0,0.056416
1845.0,0.055698
1850.0,0.056217
1855.0,0.055875
1860.0,0.05629
1865.0,0.055268
1870.0,0.055739
1875.0,0.057043
1880.0,0.056231
1885.0,0.05606
1890.0,0.056177
1895.0,0.055896
1900.0,0.056106
1905.0,0.056745
1910.0,0.056352
1915.0,0.056371
1920.0,0.056551
1925.0,0.056497
1930.0,0.056586
1935.0,0.056351
1940.0,0.056729
1945.0,0.056624
1950.0,0.056705
1955.0,0.056822
1960.0,0.056864
1965.0,0.056794
1970.0,0.056786
1975.0,0.056738
1980.0,0.057011
1985.0,0.056953
1990.0,0.056935
1995.0,0.057024
2000.0,0.056988
2005.0,0.057143
2010.0,0.057055
2015.0,0.057067
2020.0,0.057054
2025.0,0.057109
2030.0,0.056995
2035.0,0.057286
2040.0,0.057268
2045.0,0.057157
2050.0,0.057203
2055.0,0.057271
2060.0,0.057275
2065.0,0.057271
2070.0,0.057344
2075.0,0.057513
2080.0,0.057413
2085.0,0.057418
2090.0,0.05745
2095.0,0.05749
2100.0,0.057763
2105.0,0.057623
2110.0,0.057693
2115.0,0.057583
2120.0,0.057606
2125.0,0.057557
2130.0,0.057641
2135.0,0.057698
2140.0,0.057518
2145.0,0.05761
2150.0,0.05768
2155.0,0.057736
2160.0,0.057706
2165.0,0.05785
2170.0,0.057804
2175.0,0.057913
2180.0,0.058095
2185.0,0.058147
2190.0,0.058333
2195.0,0.058384
2200.0,0.058313
2205.0,0.058474
2210.0,0.05856
2215.0,0.05855
2220.0,0.05868
2225.0,0.05863
2230.0,0.058676
2235.0,0.058697
2240.0,0.058754
2245.0,0.05879
2250.0,0.05875
2255.0,0.058863
2260.0,0.058958
2265.0,0.059093
2270.0,0.059098
2275.0,0.059225
2280.0,0.059279
2285.0,0.059264
2290.0,0.059386
2295.0,0.059353
2300.0,0.059294
2305.0,0.059064
2310.0,0.059106
2315.0,0.059089
2320.0,0.059207
2325.0,0.059055
2330.0,0.05914
2335.0,0.05928
2340.0,0.059118
2345.0,0.059251
2350.0,0.059089
2355.0,0.059132
2360.0,0.059225
2365.0,0.059222
2370.0,0.059153
2375.0,0.059175
2380.0,0.059288
2385.0,0.059319
2390.0,0.059279
2395.0,0.059259
2400.0,0.059328
2405.0,0.059396
2410.0,0.059442
2415.0,0.0594
2420.0,0.05977
2425.0,0.059933
2430.0,0.059901
2435.0,0.060064
2440.0,0.059953
2445.0,0.060043
2450.0,0.060088
2455.0,0.060168
2460.0,0.060218
2465.0,0.060297
2470.0,0.060186
2475.0,0.06054
2480.0,0.060133
2485.0,0.06022
2490.0,0.060281
2495.0,0.060343
2500.0,0.060107
2502.0,0.06022
2503.2,0.060495
2504.41,0.060398
2505.62,0.060218
2506.83,0.060253
2508.05,0.060386
2509.26,0.060405
2510.48,0.060252
2511.69,0.060123
2512.91,0.060046
2514.13,0.060044
2515.35,0.060134
2516.57,0.060193
2517.79,0.060101
2519.02,0.059935
2520.24,0.059983
2521.47,0.060074
2522.69,0.060278
2523.92,0.060596
2525.15,0.060567
2526.38,0.060491
2527.61,0.060226
2528.85,0.060268
2530.08,0.06046
2531.32,0.060224
2532.55,0.059969
2533.79,0.060076
2535.03,0.060321
2536.27,0.060613
2537.51,0.060912
2538.75,0.060998
2540.0,0.060749
2541.24,0.060449
2542.49,0.060647
2543.74,0.060805
2544.99,0.060363
2546.24,0.060216
2547.49,0.060381
2548.74,0.0607
2549.99,0.06097
2551.25,0.060722
2552.5,0.060239
2553.76,0.060218
2555.02,0.060467
2556.28,0.060731
2557.54,0.060608
2558.8,0.06034
2560.07,0.060285
2561.33,0.060506
2562.6,0.060337
2563.86,0.060503
2565.13,0.060874
2566.4,0.060804
2567.67,0.060744
2568.95,0.060879
2570.22,0.061261
2571.5,0.061117
2572.77,0.060985
2574.05,0.060894
2575.33,0.060776
2576.61,0.060799
2577.89,0.060868
2579.17,0.060684
2580.46,0.060697
2581.74,0.060681
2583.03,0.060824
2584.31,0.06093
2585.6,0.060864
2586.89,0.061103
2588.19,0.061401
2589.48,0.06127
2590.77,0.061008
2592.07,0.060927
2593.36,0.060985
2594.66,0.061223
2595.96,0.061269
2597.26,0.061196
2598.56,0.061121
2599.87,0.061051
2601.17,0.061177
2602.48,0.061386
2603.78,0.06121
2605.09,0.061025
2606.4,0.061261
2607.71,0.061153
2609.03,0.060948
2610.34,0.061029
2611.66,0.061278
2612.97,0.061307
2614.29,0.061044
2615.61,0.06083
2616.93,0.060783
2618.25,0.061012
2619.57,0.06138
2620.9,0.061424
2622.22,0.061091
2623.55,0.060943
2624.88,0.061034
2626.21,0.061252
2627.54,0.061316
2628.87,0.06145
2630.21,0.061495
2631.54,0.061297
2632.88,0.061378
2634.21,0.061424
2635.55,0.06127
2636.89,0.061337
2638.24,0.061353
2639.58,0.061303
2640.92,0.06126
2642.27,0.061227
2643.62,0.061004
2644.97,0.061059
2646.32,0.061372
2647.67,0.061333
2649.02,0.061274
2650.38,0.061492
2651.73,0.061608
2653.09,0.06161
2654.45,0.061402
2655.81,0.061371
2657.17,0.061443
2658.53,0.06137
2659.89,0.061374
2661.26,0.061415
2662.63,0.061467
2664.0,0.061671
2665.36,0.061674
2666.74,0.061453
2668.11,0.06137
2669.48,0.061301
2670.86,0.061521
2672.23,0.061663
2673.61,0.061446
2674.99,0.061362
2676.37,0.061672
2677.76,0.06178
2679.14,0.061607
2680.52,0.061497
2681.91,0.061653
2683.3,0.061811
2684.69,0.061833
2686.08,0.061638
2687.47,0.061677
2688.87,0.061796
2690.26,0.061512
2691.66,0.061432
2693.06,0.061551
2694.46,0.061559
2695.86,0.061599
2697.26,0.061723
2698.66,0.061492
2700.07,0.061425
2701.48,0.061687
2702.89,0.061914
2704.3,0.061818
2705.71,0.061735
2707.12,0.061679
2708.53,0.061827
2709.95,0.061997
2711.37,0.061667
2712.79,0.061514
2714.21,0.061643
2715.63,0.061736
2717.05,0.061873
2718.48,0.062039
2719.9,0.062026
2721.33,0.061792
2722.76,0.06192
2724.19,0.062338
2725.62,0.062153
2727.06,0.061719
2728.49,0.061487
2729.93,0.061583
2731.37,0.061787
2732.81,0.062068
2734.25,0.06204
2735.69,0.062044
2737.14,0.062108
2738.58,0.061801
2740.03,0.061546
2741.48,0.061383
2742.93,0.061568
2744.38,0.061712
2745.83,0.061608
2747.29,0.061642
2748.75,0.061738
2750.2,0.061704
2751.66,0.061641
2753.13,0.061325
2754.59,0.061069
2756.05,0.061011
2757.52,0.061152
2758.99,0.061472
2760.46,0.061398
2761.93,0.061389
2763.4,0.06138
2764.87,0.06121
2766.35,0.061431
2767.82,0.061417
2769.3,0.061127
2770.78,0.061199
2772.26,0.060977
2773.75,0.060938
2775.23,0.06122
2776.72,0.06113
2778.21,0.060866
2779.7,0.060971
2781.19,0.060997
2782.68,0.061185
2784.18,0.061442
2785.67,0.061388
2787.17,0.061319
2788.67,0.061278
2790.17,0.061332
2791.67,0.061206
2793.18,0.061106
2794.68,0.061172
2796.19,0.061337
2797.7,0.061197
2799.21,0.061118
2800.72,0.061081
2802.24,0.061265
2803.75,0.061359
2805.27,0.061391
2806.79,0.061115
2808.31,0.060888
2809.83,0.060943
2811.35,0.061041
2812.88,0.061182
2814.41,0.061316
2815.93,0.061177
2817.46,0.060865
2819.0,0.060789
2820.53,0.060935
2822.07,0.061171
2823.6,0.061236
2825.14,0.061024
2826.68,0.060936
2828.22,0.060895
2829.77,0.060898
2831.31,0.061008
2832.86,0.061061
2834.41,0.061217
2835.96,0.061359
2837.51,0.06133
2839.07,0.061425
2840.62,0.061466
2842.18,0.061371
2843.74,0.061107
2845.3,0.060949
2846.86,0.061167
2848.43,0.061338
2849.99,0.061243
2851.56,0.061236
2853.13,0.061174
2854.7,0.061193
2856.27,0.061295
2857.85,0.061388
2859.42,0.06118
2861.0,0.06106
2862.58,0.061056
2864.16,0.061119
2865.75,0.061231
2867.33,0.061337
2868.92,0.061415
2870.51,0.061415
2872.1,0.061455
2873.69,0.061417
2875.28,0.061499
2876.88,0.061591
2878.48,0.061439
2880.07,0.06143
2881.68,0.061422
2883.28,0.061363
2884.88,0.061414
2886.49,0.061331
2888.1,0.061331
2889.71,0.061338
2891.32,0.061366
2892.93,0.061363
2894.55,0.061302
2896.16,0.061345
2897.78,0.061639
2899.4,0.061822
2901.03,0.061697
2902.65,0.061476
2904.28,0.061287
2905.91,0.061207
2907.54,0.061285
2909.17,0.061274
2910.8,0.061327
2912.44,0.061318
2914.07,0.061395
2915.71,0.061301
2917.35,0.061336
2918.99,0.061403
2920.64,0.061399
2922.29,0.06147
2923.93,0.061507
2925.58,0.061573
2927.24,0.061644
2928.89,0.06158
2930.55,0.061518
2932.2,0.061503
2933.86,0.06155
2935.52,0.061527
2937.19,0.061511
2938.85,0.06154
2940.52,0.06173
2942.19,0.061825
2943.86,0.061729
2945.53,0.061877
2947.21,0.06204
2948.88,0.061919
2950.56,0.061911
2952.24,0.061878
2953.92,0.061877
2955.61,0.061861
2957.29,0.061844
2958.98,0.06185
2960.67,0.061848
2962.36,0.061813
2964.06,0.061909
2965.75,0.062084
2967.45,0.062127
2969.15,0.062086
2970.85,0.06205
2972.55,0.061851
2974.26,0.061915
2975.97,0.062012
2977.68,0.061944
2979.39,0.061826
2981.1,0.061952
2982.82,0.062207
2984.53,0.062262
2986.25,0.061989
2987.97,0.061852
2989.7,0.061963
2991.42,0.062037
2993.15,0.06223
2994.88,0.062264
2996.61,0.062099
2998.34,0.062132
3000.08,0.062223
3001.82,0.062459
3003.55,0.0625
3005.3,0.062542
3007.04,0.06255
3008.78,0.062501
3010.53,0.062384
3012.28,0.062455
3014.03,0.062359
3015.79,0.062327
3017.54,0.062487
3019.3,0.06265
3021.06,0.062605
3022.82,0.062597
3024.58,0.062578
3026.35,0.062616
3028.12,0.062783
3029.89,0.062934
3031.66,0.062935
3033.43,0.062869
3035.21,0.062793
3036.99,0.062888
3038.77,0.06296
3040.55,0.062911
3042.33,0.0628
3044.12,0.062763
3045.91,0.062957
3047.7,0.062994
3049.49,0.062756
3051.29,0.062704
3053.08,0.062709
3054.88,0.062596
3056.68,0.062671
3058.49,0.062803
3060.29,0.062915
3062.1,0.062815
3063.91,0.062701
3065.72,0.062786
3067.54,0.062901
3069.35,0.063009
3071.17,0.063194
3072.99,0.063217
3074.81,0.063016
3076.64,0.063034
3078.47,0.063131
3080.29,0.063118
3082.13,0.063056
3083.96,0.063065
3085.79,0.063119
3087.63,0.063144
3089.47,0.063232
3091.31,0.06349
3093.16,0.063371
3095.01,0.063186
3096.85,0.063261
3098.71,0.063383
3100.56,0.063378
3102.41,0.06341
3104.27,0.063346
3106.13,0.063182
3107.99,0.063128
3109.86,0.06328
3111.73,0.063547
3113.59,0.063524
3115.47,0.063478
3117.34,0.063498
3119.21,0.06352
3121.09,0.063495
3122.97,0.063445
3124.86,0.063352
3126.74,0.063474
3128.63,0.063614
3130.52,0.063604
3132.41,0.063682
3134.3,0.063749
3136.2,0.063726
3138.1,0.063598
3140.0,0.06344
3141.9,0.063571
3143.81,0.063926
3145.71,0.06411
3147.62,0.06393
3149.54,0.063856
3151.45,0.064026
3153.37,0.064034
3155.29,0.063952
3157.21,0.063914
3159.13,0.06394
3161.06,0.06399
3162.99,0.064099
3164.92,0.06424
3166.85,0.064159
3168.79,0.063983
3170.72,0.063879
3172.67,0.063943
3174.61,0.064075
3176.55,0.064091
3178.5,0.064193
3180.45,0.064406
3182.4,0.064411
3184.36,0.064212
3186.32,0.064112
3188.27,0.064217
3190.24,0.064385
3192.2,0.064378
3194.17,0.064371
3196.14,0.064401
3198.11,0.06441
3200.08,0.064392
3202.06,0.064465
3204.04,0.064646
3206.02,0.064658
3208.0,0.064637
3209.99,0.064519
3211.98,0.064475
3213.97,0.06449
3215.96,0.064539
3217.96,0.064686
3219.96,0.064741
3221.96,0.064847
3223.96,0.064746
3225.97,0.064515
3227.98,0.064481
3229.99,0.064542
3232.0,0.064743
3234.02,0.064903
3236.04,0.064886
3238.06,0.064783
3240.08,0.064728
3242.11,0.06478
3244.14,0.064891
3246.17,0.064844
3248.2,0.064695
3250.24,0.064803
3252.28,0.06492
3254.32,0.065
3256.37,0.06478
3258.41,0.064666
3260.46,0.064753
3262.51,0.064883
3264.57,0.065066
3266.63,0.065115
3268.69,0.06517
3270.75,0.06516
3272.81,0.065098
3274.88,0.065097
3276.95,0.065146
3279.02,0.065128
3281.1,0.065096
3283.18,0.065122
3285.26,0.065137
3287.34,0.065236
3289.43,0.065236
3291.51,0.065308
3293.61,0.06547
3295.7,0.06544
3297.8,0.065365
3299.9,0.065437
3302.0,0.065459
3304.1,0.065578
3306.21,0.065456
3308.32,0.065279
3310.43,0.065446
3312.55,0.065506
3314.66,0.065397
3316.79,0.065529
3318.91,0.065683
3321.03,0.065646
3323.16,0.065645
3325.29,0.065719
3327.43,0.065869
3329.57,0.065887
3331.71,0.065823
3333.85,0.06574
3335.99,0.065655
3338.14,0.06574
3340.29,0.065747
3342.45,0.065659
3344.6,0.065611
3346.76,0.065662
3348.92,0.065805
3351.09,0.065907
3353.26,0.065832
3355.43,0.065856
3357.6,0.065844
3359.78,0.065883
3361.96,0.065894
3364.14,0.065816
3366.32,0.065712
3368.51,0.06569
3370.7,0.065856
3372.89,0.065938
3375.09,0.066131
3377.29,0.066211
3379.49,0.066172
3381.69,0.066137
3383.9,0.066019
3386.11,0.066042
3388.32,0.066061
3390.54,0.066065
3392.76,0.066226
3394.98,0.066235
3397.21,0.066059
3399.43,0.065957
3401.66,0.066003
3403.9,0.066063
3406.13,0.065933
3408.37,0.065877
3410.61,0.06586
3412.86,0.06593
3415.11,0.06596
3417.36,0.065898
3419.61,0.06583
3421.87,0.065829
3424.13,0.066026
3426.39,0.066101
3428.66,0.066151
3430.93,0.066237
3433.2,0.066125
3435.48,0.066191
3437.76,0.066504
3440.04,0.066744
3442.32,0.066725
3444.61,0.066661
3446.9,0.066655
3449.19,0.066802
3451.49,0.066808
3453.79,0.06667
3456.09,0.06654
3458.4,0.066606
3460.7,0.066762
3463.02,0.066903
3465.33,0.066883
3467.65,0.066843
3469.97,0.066893
3472.29,0.066949
3474.62,0.066953
3476.95,0.066882
3479.29,0.066722
3481.62,0.066742
3483.96,0.066868
3486.3,0.066928
3488.65,0.066868
3491.0,0.066799
3493.35,0.066819
3495.71,0.066878
3498.07,0.066906
3500.43,0.066852
3502.79,0.066885
3505.16,0.067081
3507.53,0.067095
3509.91,0.067123
3512.29,0.067208
3514.67,0.067219
3517.05,0.067126
3519.44,0.067075
3521.83,0.067186
3524.23,0.067467
3526.62,0.067456
3529.02,0.067337
3531.43,0.067388
3533.83,0.067456
3536.24,0.067514
3538.66,0.06746
3541.08,0.067468
3543.5,0.067548
3545.92,0.06756
3548.35,0.067589
3550.78,0.067642
3553.21,0.06755
3555.65,0.067553
3558.09,0.067639
3560.53,0.06771
3562.98,0.067844
3565.43,0.067806
3567.88,0.067762
3570.34,0.067725
3572.8,0.06765
3575.27,0.067821
3577.73,0.067997
3580.2,0.068024
3582.68,0.068016
3585.16,0.067872
3587.64,0.067823
3590.12,0.067939
3592.61,0.067893
3595.1,0.067878
3597.6,0.067958
3600.09,0.068121
3602.6,0.068206
3605.1,0.068071
3607.61,0.067887
3610.12,0.068002
3612.64,0.068102
3615.16,0.068185
3617.68,0.068189
3620.21,0.068181
3622.74,0.068148
3625.27,0.068078
3627.81,0.06814
3630.35,0.068193
3632.89,0.068201
3635.44,0.068273
3637.99,0.068194
3640.54,0.06808
3643.1,0.068143
3645.66,0.068193
3648.23,0.068213
3650.8,0.068195
3653.37,0.068264
3655.95,0.068325
3658.53,0.068195
3661.11,0.068161
3663.7,0.06841
3666.29,0.068477
3668.89,0.06835
3671.48,0.068314
3674.09,0.068353
3676.69,0.0684
3679.3,0.068451
3681.91,0.068564
3684.53,0.068641
3687.15,0.068648
3689.78,0.068592
3692.4,0.06849
3695.04,0.068523
3697.67,0.06857
3700.31,0.068581
3702.95,0.068583
3705.6,0.068554
3708.25,0.068554
3710.91,0.068587
3713.56,0.068703
3716.23,0.068814
3718.89,0.06884
3721.56,0.068782
3724.23,0.068725
3726.91,0.068852
3729.59,0.068881
3732.28,0.068757
3734.97,0.068624
3737.66,0.068724
3740.36,0.068842
3743.06,0.068918
3745.76,0.068891
3748.47,0.068881
