Database of Origin,University of Winnipeg Spectrophotometer Facility
Sample Description,Carbonates and Oxolates - RELAB+Nicolet spectra Newly merged spectra (merged by RELAB)
Other Information,Baked
Date Added,2018-08-06 20:49:03.137244

Data ID,RLA_CARB_1_46       
Sample ID,CRB213Bk
Mineral Name,Thermonatr.
Locality,Keeler/ Inyo County/ California/ USA
Grain Size,<45 um
Viewing Geometry,30/0/30
Resolution,5/ 0.6-129 nm
Formula,Na2CO3*(H2O)
Composition,Trona/ natrite and wegscheiderite

Wavelength
305.0,0.725747
310.0,0.72971
315.0,0.738301
320.0,0.745159
325.0,0.750753
330.0,0.755317
335.0,0.760605
340.0,0.766988
345.0,0.769766
350.0,0.775013
355.0,0.779951
360.0,0.783794
365.0,0.788884
370.0,0.79299
375.0,0.7975
380.0,0.802351
385.0,0.806924
390.0,0.809891
395.0,0.812492
400.0,0.815429
405.0,0.817329
410.0,0.818779
415.0,0.821621
420.0,0.82296
425.0,0.825266
430.0,0.827334
435.0,0.830826
440.0,0.830557
445.0,0.834019
450.0,0.835075
455.0,0.838232
460.0,0.838529
465.0,0.842498
470.0,0.842758
475.0,0.84514
480.0,0.846249
485.0,0.84841
490.0,0.84953
495.0,0.851782
500.0,0.853629
505.0,0.855229
510.0,0.856671
515.0,0.858147
520.0,0.859385
525.0,0.860948
530.0,0.861985
535.0,0.863786
540.0,0.864536
545.0,0.8652
550.0,0.866959
555.0,0.867926
560.0,0.868264
565.0,0.870371
570.0,0.870773
575.0,0.871724
580.0,0.872062
585.0,0.873631
590.0,0.874379
595.0,0.874636
600.0,0.87531
605.0,0.875572
610.0,0.87663
615.0,0.877625
620.0,0.877033
625.0,0.878407
630.0,0.878645
635.0,0.879735
640.0,0.87942
645.0,0.879701
650.0,0.879362
655.0,0.880856
660.0,0.881008
665.0,0.882032
670.0,0.88226
675.0,0.882076
680.0,0.883229
685.0,0.883163
690.0,0.883972
695.0,0.883766
700.0,0.883846
705.0,0.885831
710.0,0.884485
715.0,0.885348
720.0,0.884929
725.0,0.886011
730.0,0.885973
735.0,0.886264
740.0,0.886557
745.0,0.887039
750.0,0.886288
755.0,0.886655
760.0,0.888315
765.0,0.887538
770.0,0.888642
775.0,0.887193
780.0,0.889134
785.0,0.888926
790.0,0.889857
795.0,0.889996
800.0,0.889201
805.0,0.889829
810.0,0.889054
815.0,0.890135
820.0,0.88983
825.0,0.889608
830.0,0.889028
835.0,0.890344
840.0,0.889937
845.0,0.891462
850.0,0.890125
855.0,0.893416
860.0,0.891585
865.0,0.890893
870.0,0.891322
875.0,0.892796
880.0,0.889627
885.0,0.89222
890.0,0.891205
895.0,0.893636
900.0,0.892806
905.0,0.891907
910.0,0.891919
915.0,0.893692
920.0,0.892738
925.0,0.89388
930.0,0.893916
935.0,0.894606
940.0,0.893927
945.0,0.893963
950.0,0.895055
955.0,0.894828
960.0,0.895376
965.0,0.894704
970.0,0.895347
975.0,0.89509
980.0,0.894901
985.0,0.89506
990.0,0.896005
995.0,0.895433
1000.0,0.893745
1005.0,0.895257
1010.0,0.895749
1015.0,0.894757
1020.0,0.895406
1025.0,0.894524
1030.0,0.896114
1035.0,0.895889
1040.0,0.895368
1045.0,0.896381
1050.0,0.89682
1055.0,0.895724
1060.0,0.896046
1065.0,0.896239
1070.0,0.896691
1075.0,0.897261
1080.0,0.897101
1085.0,0.897406
1090.0,0.89686
1095.0,0.89766
1100.0,0.897387
1105.0,0.897548
1110.0,0.89719
1115.0,0.898573
1120.0,0.897038
1125.0,0.897387
1130.0,0.89694
1135.0,0.89795
1140.0,0.898179
1145.0,0.897213
1150.0,0.896018
1155.0,0.896837
1160.0,0.896485
1165.0,0.895493
1170.0,0.894853
1175.0,0.893793
1180.0,0.892622
1185.0,0.893814
1190.0,0.89358
1195.0,0.893479
1200.0,0.892953
1205.0,0.893811
1210.0,0.894295
1215.0,0.893964
1220.0,0.893124
1225.0,0.893685
1230.0,0.893991
1235.0,0.893279
1240.0,0.89232
1245.0,0.89374
1250.0,0.893389
1255.0,0.893328
1260.0,0.894383
1265.0,0.89426
1270.0,0.893805
1275.0,0.894233
1280.0,0.893181
1285.0,0.89328
1290.0,0.893321
1295.0,0.892561
1300.0,0.891188
1305.0,0.893402
1310.0,0.891874
1315.0,0.891725
1320.0,0.890524
1325.0,0.88852
1330.0,0.890676
1335.0,0.889183
1340.0,0.888466
1345.0,0.889819
1350.0,0.889748
1355.0,0.886656
1360.0,0.886394
1365.0,0.884456
1370.0,0.883801
1375.0,0.88409
1380.0,0.883611
1385.0,0.883515
1420.0,0.881475
1425.0,0.880928
1430.0,0.880513
1435.0,0.879995
1440.0,0.879417
1445.0,0.878533
1450.0,0.877991
1455.0,0.877347
1460.0,0.876861
1465.0,0.876285
1470.0,0.875314
1475.0,0.874882
1480.0,0.874184
1485.0,0.873543
1490.0,0.87304
1495.0,0.872608
1500.0,0.872209
1505.0,0.871606
1510.0,0.871244
1515.0,0.870835
1520.0,0.870501
1525.0,0.870246
1530.0,0.86991
1535.0,0.869754
1540.0,0.869864
1545.0,0.870027
1550.0,0.870025
1555.0,0.869977
1560.0,0.869885
1565.0,0.869802
1570.0,0.869294
1575.0,0.869016
1580.0,0.868645
1585.0,0.86805
1590.0,0.86745
1595.0,0.866943
1600.0,0.865955
1605.0,0.865185
1610.0,0.864517
1615.0,0.863686
1620.0,0.862932
1625.0,0.861844
1630.0,0.860869
1635.0,0.859788
1640.0,0.858808
1645.0,0.857656
1650.0,0.856388
1655.0,0.854814
1660.0,0.852966
1665.0,0.851665
1670.0,0.849759
1675.0,0.847661
1680.0,0.846061
1685.0,0.844046
1690.0,0.842196
1695.0,0.840152
1700.0,0.838482
1705.31,0.836394
1709.81,0.835621
1715.46,0.83507
1720.02,0.83406
1724.6,0.83326
1730.35,0.831932
1734.98,0.83107
1739.64,0.829779
1745.5,0.828526
1750.21,0.827547
1754.95,0.826875
1759.72,0.826253
1764.51,0.825697
1770.54,0.824359
1775.39,0.823703
1780.27,0.822557
1785.17,0.821684
1790.1,0.820569
1795.06,0.819235
1800.05,0.818162
1805.06,0.816613
1810.1,0.815136
1815.17,0.81342
1820.27,0.811674
1825.4,0.809937
1830.56,0.807972
1834.44,0.806885
1839.65,0.804897
1844.89,0.803227
1850.16,0.801243
1855.45,0.799368
1859.45,0.797982
1864.8,0.79585
1870.18,0.793505
1875.59,0.791116
1879.67,0.78944
1885.14,0.787485
1890.64,0.785855
1894.79,0.784412
1900.34,0.781841
1904.53,0.779906
1910.15,0.776977
1914.38,0.774323
1920.05,0.770807
1924.33,0.767969
1930.06,0.763933
1934.38,0.76096
1940.17,0.758034
1944.54,0.756592
1950.39,0.755608
1954.8,0.755399
1960.72,0.755387
1965.18,0.755439
1969.66,0.755172
1975.66,0.754441
1980.19,0.753823
1984.74,0.753
1989.31,0.751975
1995.43,0.750443
2000.05,0.749394
2004.69,0.747841
2009.35,0.746477
2015.6,0.744932
2020.32,0.743481
2025.05,0.742105
2029.81,0.740754
2034.59,0.739458
2039.39,0.738165
2044.22,0.737113
2050.69,0.736065
2055.57,0.735117
2060.47,0.734259
2065.39,0.733511
2070.34,0.732632
2075.31,0.731864
2080.31,0.730966
2085.33,0.730329
2090.38,0.729425
2095.45,0.728533
2100.54,0.72793
2105.66,0.727114
2110.8,0.726143
2114.25,0.725358
2119.43,0.724506
2124.65,0.72352
2129.88,0.722345
2135.15,0.721278
2140.44,0.720083
2145.75,0.718492
2149.31,0.717626
2154.67,0.716097
2160.06,0.714108
2165.47,0.71231
2170.91,0.710733
2174.55,0.709717
2180.04,0.708349
2185.55,0.706998
2189.25,0.705587
2194.81,0.703822
2200.4,0.701784
2204.14,0.700594
2209.78,0.698475
2215.44,0.696629
2219.24,0.695145
2224.95,0.692992
2230.7,0.690891
2234.54,0.689255
2240.33,0.686826
2244.21,0.684926
2250.06,0.68137
2255.93,0.677885
2259.87,0.675547
2265.79,0.672139
2269.76,0.669638
2275.74,0.665963
2279.74,0.663556
2285.77,0.660242
2289.81,0.658334
2295.9,0.655317
2299.97,0.653769
2304.06,0.6526
2310.22,0.651468
2314.35,0.651149
2320.56,0.650756
2324.72,0.650103
2331.0,0.649249
2335.2,0.648128
2339.41,0.647015
2345.76,0.645067
2350.02,0.643551
2354.28,0.642392
2360.72,0.642346
2365.03,0.643183
2369.35,0.644236
2375.86,0.64449
2380.23,0.644064
2384.61,0.643284
2389.0,0.642686
2395.63,0.641189
2400.06,0.640699
2404.52,0.639845
2408.98,0.639103
2415.72,0.638026
2420.23,0.637354
2424.76,0.636479
2429.3,0.635287
2433.87,0.633748
2440.74,0.631401
2445.35,0.629776
2449.97,0.628083
2454.61,0.625935
2459.27,0.624291
2463.94,0.623009
2470.99,0.620506
2475.71,0.618817
2480.45,0.616875
2485.2,0.614948
2489.98,0.613292
2494.77,0.611703
2499.58,0.610363
2504.41,0.609024
2509.26,0.607496
2514.13,0.605827
2519.02,0.603967
2523.92,0.601779
2528.85,0.59905
2533.79,0.596206
2541.24,0.591654
2543.74,0.59033
2548.74,0.587871
2553.76,0.586317
2556.28,0.58624
2558.8,0.586466
2561.33,0.586464
2563.86,0.586601
2566.4,0.587804
2568.95,0.589092
2571.5,0.589827
2574.05,0.590126
2576.61,0.590209
2579.17,0.590287
2581.74,0.590103
2584.31,0.589387
2586.89,0.5886
2589.48,0.588063
2592.07,0.587585
2594.66,0.586468
2597.26,0.585077
2599.87,0.585065
2602.48,0.584797
2605.09,0.583693
2607.71,0.582732
2610.34,0.58225
2612.97,0.581582
2615.61,0.580563
2618.25,0.579419
2620.9,0.578511
2623.55,0.577907
2626.21,0.577285
2628.87,0.576151
2631.54,0.574907
2634.22,0.574003
2636.89,0.573399
2639.58,0.572604
2642.27,0.571472
2644.97,0.570244
2647.67,0.569188
2650.38,0.568194
2653.09,0.567154
2655.81,0.566033
2658.53,0.564828
2661.26,0.563611
2664.0,0.562272
2666.74,0.560445
2669.48,0.558863
2672.23,0.55743
2674.99,0.556309
2677.76,0.554762
2680.52,0.552753
2683.3,0.550958
2686.08,0.548588
2688.87,0.54551
2691.66,0.542044
2694.46,0.537837
2697.26,0.533254
2700.07,0.529168
2702.89,0.525395
2705.71,0.522438
2708.53,0.52002
2711.37,0.517467
2714.21,0.514961
2717.05,0.512604
2719.9,0.509666
2722.76,0.505987
2725.62,0.50222
2728.49,0.498719
2731.37,0.495357
2734.25,0.491375
2737.14,0.486617
2740.03,0.481725
2742.93,0.476707
2745.83,0.472431
2748.75,0.467917
2751.66,0.462757
2754.59,0.457327
2757.52,0.45166
2760.46,0.446624
2763.4,0.442049
2766.35,0.437464
2769.3,0.433279
2772.26,0.429137
2775.23,0.425051
2778.21,0.421182
2781.19,0.41716
2784.18,0.413202
2787.17,0.409502
2790.17,0.405578
2793.18,0.401782
2796.19,0.39849
2799.21,0.394999
2802.24,0.391161
2805.27,0.387499
2808.31,0.383832
2811.35,0.380928
2814.41,0.378606
2817.46,0.376702
2820.53,0.374931
2823.6,0.373052
2826.68,0.371123
2829.77,0.36902
2832.86,0.366859
2835.96,0.364788
2839.07,0.362921
2842.18,0.361146
2845.3,0.3592
2848.43,0.357363
2851.56,0.355661
2854.7,0.354016
2857.85,0.352533
2861.0,0.350957
2864.16,0.349341
2867.33,0.347706
2870.51,0.346048
2873.69,0.344401
2876.88,0.342839
2880.07,0.341325
2883.28,0.339803
2886.49,0.338483
2889.71,0.337329
2892.93,0.336185
2896.17,0.335093
2899.4,0.334007
2902.65,0.333053
2905.91,0.331233
2909.17,0.330712
2912.44,0.330508
2915.71,0.329492
2918.99,0.328571
2922.29,0.327811
2925.58,0.32724
2928.89,0.326497
2932.2,0.325029
2935.52,0.324843
2938.85,0.323474
2942.19,0.321994
2945.53,0.321362
2948.88,0.320006
2952.24,0.319286
2955.61,0.317873
2958.98,0.316286
2962.36,0.314722
2965.75,0.313732
2969.15,0.311685
2972.55,0.310138
2975.97,0.30861
2979.39,0.306945
2986.25,0.303423
2989.7,0.302182
2993.15,0.299934
2996.61,0.298527
3000.08,0.296984
3003.55,0.295454
3007.04,0.293861
3010.53,0.292314
3014.03,0.290406
3017.54,0.289079
3021.06,0.287093
3024.58,0.285147
3028.12,0.283419
3031.66,0.281797
3035.21,0.279532
3038.77,0.277869
3042.33,0.276087
3045.91,0.274408
3049.49,0.272172
3053.08,0.270297
3056.68,0.267858
3060.29,0.265874
3063.91,0.263824
3067.54,0.261857
3071.17,0.259791
3074.81,0.257837
3078.47,0.255719
3082.13,0.253229
3085.79,0.251077
3089.47,0.248732
3093.16,0.246803
3096.85,0.244708
3100.56,0.242588
3104.27,0.239914
3107.99,0.237393
3111.73,0.235541
3115.47,0.232798
3119.21,0.230016
3122.97,0.22785
3126.74,0.225425
3130.52,0.222942
3134.3,0.220482
3138.1,0.218026
3141.9,0.215691
3145.71,0.213556
3149.54,0.21169
3153.37,0.210519
3157.21,0.207878
3161.06,0.20614
3164.92,0.204215
3168.79,0.201595
3172.67,0.200113
3176.55,0.197628
3180.45,0.19561
3184.36,0.193568
3188.27,0.191238
3192.2,0.1895
3196.14,0.187092
3200.08,0.185253
3204.04,0.183175
3208.0,0.181118
3211.98,0.179632
3215.96,0.177929
3219.96,0.176313
3223.96,0.17503
3227.98,0.173353
3232.0,0.172263
3236.04,0.171153
3240.08,0.169602
3244.14,0.168147
3248.2,0.167496
3252.28,0.166787
3256.37,0.166209
3260.46,0.165292
3264.57,0.164492
3268.69,0.163802
3272.81,0.163002
3276.95,0.162093
3281.1,0.161173
3285.26,0.160008
3289.43,0.158717
3293.61,0.157311
3297.8,0.155512
3302.0,0.153774
3306.21,0.15179
3310.43,0.149846
3314.66,0.147938
3318.91,0.145564
3323.16,0.143293
3327.43,0.141382
3331.71,0.139315
3335.99,0.137415
3340.29,0.135076
3344.6,0.132965
3348.92,0.13075
3353.26,0.127889
3357.6,0.124918
3361.96,0.121392
3366.32,0.117773
3370.7,0.113942
3375.09,0.111049
3379.49,0.109321
3383.9,0.108511
3388.32,0.108391
3392.76,0.108925
3397.21,0.109034
3401.66,0.109122
3406.13,0.109538
3410.61,0.109691
3415.11,0.110411
3419.61,0.111173
3424.13,0.111977
3428.66,0.11302
3433.2,0.113167
3437.76,0.113824
3442.32,0.1145
3446.9,0.115058
3451.49,0.115854
3456.09,0.116039
3460.7,0.116337
3465.33,0.116291
3469.97,0.115835
3474.62,0.115075
3479.29,0.114357
3483.96,0.114093
3488.65,0.1139
3493.35,0.113532
3498.07,0.112951
3502.79,0.111903
3507.53,0.110512
3512.29,0.111532
3517.05,0.115955
3521.83,0.122238
3526.62,0.128027
3531.43,0.132652
3536.24,0.136115
3541.08,0.138496
3543.5,0.139369
3545.92,0.140104
3548.35,0.140977
3550.78,0.141676
3553.21,0.142186
3555.65,0.142545
3558.09,0.142917
3560.53,0.143234
3562.98,0.143448
3565.43,0.143519
3567.88,0.143643
3570.34,0.143821
3572.8,0.144036
3575.27,0.144178
3577.73,0.144034
3580.2,0.143868
3582.68,0.143859
3585.16,0.143876
3587.64,0.143891
3590.12,0.144
3592.61,0.144279
3595.1,0.144336
3597.6,0.144227
3600.09,0.144189
3602.6,0.14426
3605.1,0.144113
3607.61,0.143679
3610.12,0.143423
3612.64,0.143362
3615.16,0.143122
3617.68,0.142652
3620.21,0.142146
3622.74,0.141964
3625.27,0.141651
3627.81,0.141166
3630.35,0.14078
3632.89,0.140312
3635.44,0.139642
3637.99,0.139094
3640.54,0.13879
3643.1,0.138341
3645.66,0.137683
3648.23,0.136936
3650.8,0.136298
3653.37,0.135654
3655.95,0.134999
3658.53,0.134375
3661.11,0.133739
3663.7,0.13316
3666.29,0.132585
3668.89,0.131837
3671.48,0.131111
3674.09,0.130391
3676.69,0.129732
3679.3,0.129056
3681.91,0.128313
3684.53,0.127536
3687.15,0.126604
3689.78,0.125605
3692.4,0.124864
3695.04,0.124114
3697.67,0.12318
3700.31,0.122347
3702.95,0.121476
3705.6,0.120707
3708.25,0.119845
3710.91,0.11908
3713.56,0.118188
3716.23,0.117219
3718.89,0.116402
3721.56,0.115846
3724.23,0.115149
3726.91,0.114345
3729.59,0.113587
3732.28,0.112859
3734.97,0.112138
3737.66,0.111574
3740.36,0.110877
3743.06,0.110029
3745.76,0.109288
3748.47,0.108857
3751.18,0.108358
3753.9,0.107514
3756.62,0.106685
3759.34,0.106087
3762.07,0.105478
3764.8,0.104718
3767.54,0.103929
3770.28,0.10328
3773.02,0.102761
3775.77,0.10231
3778.52,0.101903
3781.28,0.101386
3784.04,0.100538
3786.8,0.099873
3789.57,0.099506
3792.34,0.098964
3795.12,0.098529
3797.9,0.098194
3800.69,0.097545
3803.47,0.096871
3806.27,0.096351
3809.06,0.095794
3811.86,0.095227
3814.67,0.094575
3817.48,0.093785
3820.29,0.092774
3823.11,0.091967
3825.93,0.091075
3828.76,0.09012
3831.59,0.089123
3834.42,0.088105
3837.26,0.087158
3840.1,0.086566
3842.95,0.085999
3845.8,0.085533
3848.65,0.085181
3851.51,0.084794
3854.38,0.08424
3857.24,0.083776
3860.12,0.083441
3862.99,0.082989
3865.87,0.082658
3868.76,0.082525
3871.65,0.082477
3874.54,0.082347
3877.44,0.08232
3880.34,0.082261
3883.25,0.082139
3886.16,0.082219
3889.07,0.082311
3891.99,0.082336
3894.92,0.082362
3897.85,0.082557
3900.78,0.082697
3903.72,0.082658
3906.66,0.082775
3909.6,0.082991
3912.55,0.083126
3915.51,0.083262
3918.47,0.083226
3921.43,0.082788
3924.4,0.081994
3927.38,0.08118
3930.35,0.080487
3933.33,0.079798
3936.32,0.079015
3939.31,0.078293
3942.31,0.077808
3945.31,0.077347
3948.31,0.076845
3951.32,0.076247
3954.34,0.075497
3957.35,0.074672
3960.38,0.073759
3963.41,0.072623
3966.44,0.071498
3969.48,0.070306
3972.52,0.068983
3975.56,0.06759
3978.61,0.06621
3981.67,0.064913
3984.73,0.063689
3987.8,0.062577
3990.87,0.061865
3993.94,0.06167
3997.02,0.061796
4000.1,0.061771
4003.19,0.061206
4006.29,0.060045
4009.39,0.058783
4012.49,0.057715
4015.6,0.057276
4018.71,0.057791
4021.83,0.059378
4024.95,0.062283
4028.08,0.066221
4031.21,0.070554
4034.35,0.074651
4037.49,0.078306
4040.64,0.081352
4043.79,0.083468
4046.94,0.085303
4050.11,0.086803
4053.27,0.087792
4056.44,0.088796
4059.62,0.08987
4062.8,0.09076
4065.99,0.091445
4069.18,0.09223
4072.38,0.093103
4075.58,0.093926
4078.78,0.094614
4082.0,0.095074
4085.21,0.095467
4088.43,0.095903
4091.66,0.096269
4094.89,0.096563
4098.13,0.096884
4101.37,0.097217
4104.62,0.097545
4107.87,0.09791
4111.13,0.098299
4114.39,0.098773
4117.66,0.099151
4120.93,0.099422
4124.21,0.099663
4127.5,0.099938
4130.79,0.100238
4134.08,0.100528
4137.38,0.100878
4140.68,0.10125
4143.99,0.101649
4147.31,0.101949
4150.63,0.102115
4153.95,0.102367
4157.29,0.102728
4160.62,0.102973
4163.96,0.10319
4167.31,0.103444
4170.66,0.103691
4174.02,0.103929
4177.39,0.10426
4180.75,0.104508
4184.13,0.104716
4187.51,0.105056
4190.89,0.105444
4194.28,0.105704
4197.68,0.10591
4201.08,0.106181
4204.49,0.106437
4207.9,0.106542
4211.32,0.106565
4214.74,0.10654
4218.17,0.10671
4221.61,0.10692
4225.05,0.107075
4228.5,0.107296
4231.95,0.107692
4235.4,0.108089
4238.87,0.108379
4242.34,0.108622
4245.81,0.108822
4249.29,0.109084
4252.78,0.109689
4256.27,0.110379
4259.77,0.110709
4263.27,0.110889
4266.78,0.111066
4270.29,0.111175
4273.81,0.111171
4277.34,0.111192
4280.87,0.111526
4284.41,0.111998
4287.95,0.112323
4291.5,0.112573
4295.06,0.112819
4298.62,0.113119
4302.19,0.113558
4305.76,0.11399
4309.34,0.114395
4312.92,0.11466
4316.52,0.115008
4320.11,0.115365
4323.72,0.115674
4327.32,0.116051
4330.94,0.116347
4334.56,0.116616
4338.19,0.116874
4341.82,0.11709
4345.46,0.117231
4349.11,0.117281
4352.76,0.117349
4356.42,0.117584
4360.08,0.117735
4363.75,0.117794
4367.43,0.118027
4371.11,0.118155
4374.8,0.118169
4378.49,0.118346
4382.19,0.118617
4385.9,0.118656
4389.61,0.118793
4393.33,0.119087
4397.06,0.119412
4400.79,0.119679
4404.53,0.119912
4408.28,0.120031
4412.03,0.12033
4415.79,0.120688
4419.55,0.120953
4423.32,0.121152
4427.1,0.121285
4430.88,0.121534
4434.68,0.121782
4438.47,0.121954
4442.28,0.122118
4446.08,0.122265
4449.9,0.122401
4453.72,0.122599
4457.55,0.122813
4461.39,0.122867
4465.23,0.122974
4469.08,0.12317
4472.94,0.123216
4476.8,0.123172
4480.67,0.123233
4484.55,0.123319
4488.43,0.123352
4492.32,0.12331
4496.21,0.123308
4500.12,0.123302
4504.03,0.123411
4507.94,0.123506
4511.87,0.123432
4515.8,0.123348
4519.73,0.123422
4523.68,0.123407
4527.63,0.123365
4531.59,0.12343
4535.55,0.123512
4539.52,0.123415
4543.5,0.123277
4547.49,0.123226
4551.48,0.123275
4555.48,0.123277
4559.49,0.123182
4563.5,0.123067
4567.52,0.122924
4571.55,0.122765
4575.58,0.122618
4579.63,0.122427
4583.67,0.122265
4587.73,0.122047
4591.79,0.12183
4595.86,0.121612
4599.94,0.121392
4604.03,0.121154
4608.12,0.120982
4612.22,0.120791
4616.33,0.120483
4620.44,0.120103
4624.56,0.119639
4628.69,0.119284
4632.83,0.119064
4636.97,0.118684
4641.12,0.11819
4645.28,0.117781
4649.45,0.117498
4653.62,0.117042
4657.8,0.116624
4661.99,0.116152
4666.19,0.115501
4670.39,0.114851
4674.6,0.114301
4678.82,0.113721
4683.05,0.113173
4687.28,0.112749
4691.52,0.112361
4695.77,0.111887
4700.03,0.111324
4704.3,0.110753
4708.57,0.110237
4712.85,0.109727
4717.14,0.109099
4721.43,0.108433
4725.74,0.108007
4730.05,0.107604
4734.37,0.107163
4738.7,0.10684
4743.03,0.106634
4747.38,0.106425
4751.73,0.106393
4756.09,0.106257
4760.45,0.105986
4764.83,0.105744
4769.21,0.105602
4773.6,0.105098
4778.0,0.104397
4782.41,0.103916
4786.83,0.103576
4791.25,0.103221
4795.68,0.102759
4800.13,0.102088
4804.57,0.101504
4809.03,0.100965
4813.5,0.100391
4817.97,0.09981
4822.45,0.099214
4826.94,0.098498
