Database of Origin,University of Winnipeg Spectrophotometer Facility
Sample Description,16.12. Meteorites - Ureilites 16.12.3. Pierre Hudon (JSC) samples (b) Nicolet FTIR spectra from RELAB
Other Information,bmraph020
Date Added,2018-07-23 23:49:07.349104

Data ID,RLA_MET2_9_7        
Sample ID,META78008
Mineral Name,ureilite
Grain Size,<75 um
Viewing Geometry,30/30
Resolution,0.8-121 nm

Wavelength
2000.5,0.04659
2001.3,0.0467
2002.1,0.04717
2002.8,0.04731
2003.6,0.04735
2004.4,0.04728
2005.2,0.04703
2005.9,0.04681
2006.7,0.04705
2007.5,0.04734
2008.3,0.04736
2009.0,0.04745
2009.8,0.04764
2010.6,0.04784
2011.4,0.04768
2012.2,0.04758
2012.9,0.04786
2013.7,0.04809
2014.5,0.04818
2015.3,0.04796
2016.1,0.0481
2016.8,0.04811
2017.6,0.04811
2018.4,0.04837
2019.2,0.04853
2020.0,0.04864
2020.8,0.0484
2021.6,0.0484
2022.4,0.04887
2023.2,0.04887
2023.9,0.04874
2024.7,0.04864
2025.5,0.04862
2026.3,0.04867
2027.1,0.0488
2027.9,0.04916
2028.7,0.04948
2029.5,0.0495
2030.3,0.04942
2031.1,0.04933
2031.9,0.04953
2032.7,0.04955
2033.5,0.04948
2034.3,0.04962
2035.1,0.04979
2035.9,0.04972
2036.7,0.04983
2037.5,0.04996
2038.3,0.05002
2039.1,0.05012
2039.9,0.05013
2040.7,0.05028
2041.5,0.05039
2042.3,0.05066
2043.1,0.05065
2043.9,0.05036
2044.7,0.05033
2045.5,0.05057
2046.3,0.05084
2047.1,0.051
2047.9,0.05092
2048.7,0.0508
2049.5,0.05074
2050.4,0.05054
2051.2,0.05085
2052.0,0.05109
2052.8,0.05123
2053.6,0.05125
2054.4,0.05129
2055.2,0.05132
2056.0,0.05135
2056.9,0.05128
2057.7,0.05145
2058.5,0.05149
2059.3,0.05137
2060.1,0.05133
2060.9,0.05153
2061.8,0.05164
2062.6,0.05157
2063.4,0.05167
2064.2,0.05199
2065.1,0.05214
2065.9,0.0523
2066.7,0.05222
2067.5,0.05199
2068.3,0.05209
2069.2,0.05216
2070.0,0.05225
2070.8,0.05229
2071.6,0.0521
2072.5,0.05216
2073.3,0.05226
2074.1,0.05238
2075.0,0.05269
2075.8,0.0527
2076.6,0.05277
2077.5,0.05285
2078.3,0.05278
2079.1,0.05268
2080.0,0.05281
2080.8,0.05312
2081.6,0.0531
2082.5,0.05307
2083.3,0.05281
2084.1,0.05279
2085.0,0.05328
2085.8,0.05369
2086.7,0.0535
2087.5,0.05326
2088.3,0.05336
2089.2,0.05373
2090.0,0.05388
2090.9,0.05382
2091.7,0.05375
2092.6,0.05391
2093.4,0.05398
2094.2,0.05399
2095.1,0.05395
2095.9,0.05403
2096.8,0.0542
2097.6,0.05427
2098.5,0.05435
2099.3,0.05422
2100.2,0.05441
2101.0,0.05449
2101.9,0.05436
2102.7,0.05449
2103.6,0.05463
2104.4,0.05471
2105.3,0.0548
2106.1,0.05477
2107.0,0.05507
2107.9,0.05526
2108.7,0.05507
2109.6,0.05525
2110.4,0.05534
2111.3,0.05538
2112.2,0.05556
2113.0,0.05559
2113.9,0.05558
2114.7,0.05558
2115.6,0.05552
2116.5,0.05566
2117.3,0.05573
2118.2,0.05557
2119.1,0.05551
2119.9,0.05566
2120.8,0.0558
2121.7,0.05602
2122.5,0.05626
2123.4,0.05621
2124.3,0.05598
2125.1,0.05608
2126.0,0.05624
2126.9,0.05635
2127.8,0.05613
2128.6,0.05597
2129.5,0.05618
2130.4,0.05654
2131.3,0.0564
2132.1,0.05637
2133.0,0.05672
2133.9,0.05673
2134.8,0.05672
2135.6,0.05672
2136.5,0.05683
2137.4,0.05697
2138.3,0.05697
2139.2,0.05682
2140.1,0.05678
2140.9,0.0568
2141.8,0.05689
2142.7,0.05706
2143.6,0.05697
2144.5,0.05695
2145.4,0.05709
2146.3,0.05739
2147.1,0.05769
2148.0,0.05754
2148.9,0.05746
2149.8,0.05753
2150.7,0.05764
2151.6,0.0577
2152.5,0.05763
2153.4,0.05765
2154.3,0.05773
2155.2,0.0577
2156.1,0.05771
2157.0,0.05785
2157.9,0.05781
2158.8,0.05794
2159.7,0.05811
2160.6,0.05808
2161.5,0.05809
2162.4,0.05819
2163.3,0.05818
2164.2,0.05813
2165.1,0.05813
2166.0,0.05826
2166.9,0.05841
2167.8,0.05859
2168.7,0.05864
2169.6,0.05862
2170.5,0.05845
2171.4,0.05821
2172.3,0.05825
2173.3,0.05857
2174.2,0.05872
2175.1,0.05856
2176.0,0.05846
2176.9,0.05863
2177.8,0.05876
2178.7,0.0588
2179.6,0.05886
2180.6,0.05886
2181.5,0.05892
2182.4,0.05894
2183.3,0.05914
2184.2,0.0592
2185.1,0.05926
2186.1,0.05948
2187.0,0.05946
2187.9,0.05946
2188.8,0.05961
2189.8,0.05964
2190.7,0.05954
2191.6,0.05947
2192.6,0.05947
2193.5,0.05969
2194.4,0.05984
2195.3,0.05989
2196.3,0.05986
2197.2,0.05979
2198.1,0.05991
2199.1,0.06014
2200.0,0.06022
2200.9,0.06015
2201.9,0.06001
2202.8,0.06013
2203.7,0.06025
2204.7,0.06015
2205.6,0.06008
2206.5,0.06018
2207.5,0.06027
2208.4,0.06038
2209.4,0.06051
2210.3,0.06071
2211.3,0.06076
2212.2,0.06066
2213.1,0.06063
2214.1,0.06058
2215.0,0.06063
2216.0,0.0608
2216.9,0.06086
2217.9,0.06094
2218.8,0.06104
2219.8,0.06091
2220.7,0.06079
2221.7,0.06082
2222.6,0.06094
2223.6,0.06117
2224.5,0.06121
2225.5,0.06126
2226.4,0.06131
2227.4,0.06141
2228.4,0.06141
2229.3,0.06133
2230.3,0.06147
2231.2,0.06143
2232.2,0.06141
2233.1,0.06138
2234.1,0.06135
2235.1,0.06136
2236.0,0.06151
2237.0,0.06161
2238.0,0.06151
2238.9,0.06162
2239.9,0.06168
2240.9,0.06179
2241.8,0.06208
2242.8,0.06212
2243.8,0.06184
2244.8,0.06191
2245.7,0.06203
2246.7,0.06209
2247.7,0.06225
2248.6,0.0623
2249.6,0.06212
2250.6,0.06207
2251.6,0.0622
2252.6,0.06241
2253.5,0.06234
2254.5,0.06231
2255.5,0.06252
2256.5,0.06242
2257.5,0.06238
2258.4,0.06256
2259.4,0.06269
2260.4,0.06272
2261.4,0.06268
2262.4,0.06273
2263.4,0.06287
2264.4,0.06298
2265.4,0.06286
2266.3,0.06277
2267.3,0.06287
2268.3,0.06308
2269.3,0.06312
2270.3,0.06312
2271.3,0.06317
2272.3,0.06317
2273.3,0.06324
2274.3,0.06337
2275.3,0.06334
2276.3,0.06331
2277.3,0.06324
2278.3,0.06324
2279.3,0.06335
2280.3,0.06332
2281.3,0.06335
2282.3,0.06354
2283.3,0.06359
2284.3,0.06352
2285.3,0.06362
2286.3,0.0637
2287.3,0.06363
2288.4,0.06374
2289.4,0.0639
2290.4,0.06396
2291.4,0.06395
2292.4,0.06377
2293.4,0.06359
2294.4,0.06369
2295.4,0.06384
2296.5,0.06374
2297.5,0.06383
2298.5,0.06408
2299.5,0.06418
2300.5,0.06409
2301.6,0.06416
2302.6,0.06414
2303.6,0.06422
2304.6,0.06433
2305.6,0.06441
2306.7,0.06451
2307.7,0.06458
2308.7,0.0646
2309.8,0.06458
2310.8,0.06455
2311.8,0.06457
2312.9,0.06475
2313.9,0.06477
2314.9,0.06477
2315.9,0.06473
2317.0,0.06475
2318.0,0.06497
2319.1,0.06498
2320.1,0.06494
2321.1,0.06508
2322.2,0.06506
2323.2,0.0651
2324.3,0.06505
2325.3,0.06502
2326.3,0.06506
2327.4,0.06515
2328.4,0.06517
2329.5,0.06524
2330.5,0.06529
2331.6,0.06531
2332.6,0.06537
2333.7,0.06531
2334.7,0.06537
2335.8,0.06557
2336.8,0.0656
2337.9,0.06543
2338.9,0.06544
2340.0,0.06545
2341.0,0.06561
2342.1,0.06559
2343.2,0.06558
2344.2,0.06575
2345.3,0.06582
2346.3,0.06586
2347.4,0.06597
2348.5,0.06604
2349.5,0.06597
2350.6,0.0659
2351.7,0.06594
2352.7,0.06604
2353.8,0.06613
2354.9,0.06614
2355.9,0.06609
2357.0,0.06601
2358.1,0.06622
2359.1,0.06629
2360.2,0.0662
2361.3,0.06627
2362.4,0.06636
2363.4,0.0665
2364.5,0.06656
2365.6,0.06654
2366.7,0.06656
2367.8,0.06656
2368.9,0.06643
2369.9,0.0665
2371.0,0.06668
2372.1,0.06662
2373.2,0.06669
2374.3,0.06692
2375.4,0.06691
2376.4,0.06679
2377.5,0.06693
2378.6,0.06695
2379.7,0.06698
2380.8,0.06695
2381.9,0.06693
2383.0,0.06696
2384.1,0.06691
2385.2,0.06704
2386.3,0.06721
2387.4,0.06727
2388.5,0.06726
2389.6,0.06712
2390.7,0.06717
2391.8,0.0674
2392.9,0.06746
2394.0,0.06736
2395.1,0.06735
2396.2,0.06742
2397.3,0.06746
2398.4,0.06744
2399.6,0.06747
2400.7,0.06754
2401.8,0.06765
2402.9,0.06768
2404.0,0.06776
2405.1,0.06788
2406.2,0.06788
2407.4,0.06786
2408.5,0.06786
2409.6,0.06788
2410.7,0.06786
2411.8,0.06789
2412.9,0.06807
2414.1,0.0681
2415.2,0.06808
2416.3,0.0681
2417.4,0.06814
2418.6,0.06812
2419.7,0.06816
2420.8,0.06826
2422.0,0.0683
2423.1,0.06825
2424.2,0.06831
2425.4,0.06837
2426.5,0.06836
2427.6,0.0684
2428.8,0.0684
2429.9,0.06841
2431.1,0.06846
2432.2,0.06853
2433.3,0.06865
2434.5,0.06867
2435.6,0.0686
2436.8,0.06868
2437.9,0.06881
2439.1,0.06883
2440.2,0.06885
2441.4,0.06886
2442.5,0.069
2443.6,0.06907
2444.8,0.06902
2446.0,0.06901
2447.1,0.06906
2448.3,0.06911
2449.4,0.0691
2450.6,0.06908
2451.7,0.06916
2452.9,0.0692
2454.1,0.06923
2455.2,0.06929
2456.4,0.06932
2457.6,0.06933
2458.7,0.06937
2459.9,0.06948
2461.1,0.06945
2462.2,0.06945
2463.4,0.06957
2464.6,0.0695
2465.7,0.06951
2466.9,0.06966
2468.1,0.06976
2469.3,0.0698
2470.4,0.06976
2471.6,0.06979
2472.8,0.0699
2474.0,0.06988
2475.1,0.06988
2476.3,0.06999
2477.5,0.07007
2478.7,0.07014
2479.9,0.07013
2481.1,0.07006
2482.3,0.07014
2483.4,0.07022
2484.6,0.0702
2485.8,0.07017
2487.0,0.07019
2488.2,0.07027
2489.4,0.07026
2490.6,0.07013
2491.8,0.07022
2493.0,0.07036
2494.2,0.07042
2495.4,0.07043
2496.6,0.07044
2497.8,0.0705
2499.0,0.07051
2500.2,0.0706
2501.4,0.07067
2502.6,0.07065
2503.8,0.07064
2505.0,0.07065
2506.3,0.07067
2507.5,0.07076
2508.7,0.07094
2509.9,0.07089
2511.1,0.07078
2512.3,0.07077
2513.5,0.07091
2514.8,0.07109
2516.0,0.07112
2517.2,0.07104
2518.4,0.07094
2519.6,0.07096
2520.9,0.07107
2522.1,0.07116
2523.3,0.07123
2524.6,0.07126
2525.8,0.07121
2527.0,0.0712
2528.3,0.07139
2529.5,0.07147
2530.7,0.07142
2531.9,0.07142
2533.2,0.07154
2534.4,0.0716
2535.7,0.07167
2536.9,0.07167
2538.1,0.07162
2539.4,0.07168
2540.6,0.07171
2541.9,0.07172
2543.1,0.07177
2544.4,0.07175
2545.6,0.0717
2546.9,0.07169
2548.1,0.07185
2549.4,0.07189
2550.6,0.07189
2551.9,0.0719
2553.1,0.07193
2554.4,0.07194
2555.7,0.07206
2556.9,0.0721
2558.2,0.07208
2559.4,0.07219
2560.7,0.07235
2562.0,0.07242
2563.2,0.07238
2564.5,0.07229
2565.8,0.07225
2567.1,0.07228
2568.3,0.07236
2569.6,0.07248
2570.9,0.07245
2572.1,0.0725
2573.4,0.07269
2574.7,0.07262
2576.0,0.07261
2577.3,0.07266
2578.5,0.07267
2579.8,0.07275
2581.1,0.07282
2582.4,0.0728
2583.7,0.07284
2585.0,0.07273
2586.3,0.07274
2587.5,0.07283
2588.8,0.07283
2590.1,0.07283
2591.4,0.07285
2592.7,0.07294
2594.0,0.07312
2595.3,0.07327
2596.6,0.07301
2597.9,0.07292
2599.2,0.07299
2600.5,0.07315
2601.8,0.07326
2603.1,0.07319
2604.4,0.0732
2605.8,0.07331
2607.1,0.07326
2608.4,0.07318
2609.7,0.07311
2611.0,0.07318
2612.3,0.07337
2613.6,0.07342
2614.9,0.07337
2616.3,0.07355
2617.6,0.07358
2618.9,0.07353
2620.2,0.07363
2621.6,0.07352
2622.9,0.07347
2624.2,0.07355
2625.5,0.07366
2626.9,0.07373
2628.2,0.07363
2629.5,0.07376
2630.9,0.07387
2632.2,0.07376
2633.5,0.07382
2634.9,0.07387
2636.2,0.07389
2637.6,0.07392
2638.9,0.07386
2640.2,0.07382
2641.6,0.07383
2642.9,0.07387
2644.3,0.07391
2645.6,0.07399
2647.0,0.0741
2648.3,0.07411
2649.7,0.07401
2651.0,0.074
2652.4,0.07411
2653.8,0.07418
2655.1,0.07427
2656.5,0.07423
2657.8,0.07419
2659.2,0.07428
2660.6,0.07428
2661.9,0.0743
2663.3,0.07431
2664.7,0.07442
2666.0,0.07455
2667.4,0.07459
2668.8,0.07443
2670.1,0.07458
2671.5,0.07458
2672.9,0.07445
2674.3,0.07445
2675.7,0.07451
2677.0,0.07453
2678.4,0.0745
2679.8,0.07457
2681.2,0.07449
2682.6,0.07452
2684.0,0.07454
2685.4,0.07454
2686.8,0.07458
2688.1,0.07447
2689.5,0.07438
2690.9,0.07442
2692.3,0.07451
2693.7,0.07468
2695.1,0.07476
2696.5,0.07459
2697.9,0.07441
2699.3,0.07444
2700.8,0.0746
2702.1,0.07463
2703.6,0.07451
2705.0,0.07452
2706.4,0.07452
2707.8,0.0745
2709.2,0.07448
2710.6,0.07453
2712.1,0.07453
2713.5,0.07442
2714.9,0.07439
2716.3,0.07434
2717.7,0.07432
2719.2,0.07446
2720.6,0.07468
2722.0,0.07441
2723.4,0.07426
2724.9,0.07428
2726.3,0.07408
2727.7,0.07394
2729.2,0.0739
2730.6,0.07391
2732.1,0.07386
2733.5,0.07383
2734.9,0.07384
2736.4,0.0736
2737.8,0.07352
2739.3,0.07362
2740.7,0.07359
2742.2,0.07333
2743.6,0.07314
2745.1,0.07306
2746.5,0.07295
2748.0,0.07284
2749.4,0.07272
2750.9,0.07261
2752.4,0.07251
2753.8,0.07249
2755.3,0.07255
2756.7,0.07222
2758.2,0.07194
2759.7,0.07192
2761.1,0.07187
2762.6,0.0718
2764.1,0.07162
2765.6,0.0714
2767.0,0.07134
2768.5,0.0712
2770.0,0.07098
2771.5,0.07093
2773.0,0.07074
2774.4,0.07057
2775.9,0.07051
2777.4,0.07044
2778.9,0.0703
2780.4,0.07013
2781.9,0.06995
2783.4,0.06982
2784.9,0.06975
2786.4,0.06971
2787.9,0.06951
2789.4,0.06924
2790.9,0.06907
2792.4,0.069
2793.9,0.06897
2795.4,0.06885
2796.9,0.06869
2798.4,0.06855
2799.9,0.06845
2801.4,0.06843
2802.9,0.06839
2804.4,0.06827
2806.0,0.06806
2807.5,0.06788
2809.0,0.06776
2810.5,0.06759
2812.1,0.06747
2813.6,0.06737
2815.1,0.06726
2816.6,0.06712
2818.2,0.067
2819.7,0.06695
2821.2,0.06691
2822.8,0.06681
2824.3,0.06666
2825.9,0.06654
2827.4,0.06646
2828.9,0.06636
2830.5,0.06622
2832.0,0.06612
2833.6,0.066
2835.1,0.06595
2836.7,0.06584
2838.2,0.06571
2839.8,0.06565
2841.3,0.06564
2842.9,0.06553
2844.4,0.06537
2846.0,0.06528
2847.6,0.06526
2849.1,0.06521
2850.7,0.06506
2852.3,0.06497
2853.8,0.06489
2855.4,0.06479
2857.0,0.06473
2858.6,0.06466
2860.1,0.06456
2861.7,0.06448
2863.3,0.06438
2864.9,0.06434
2866.5,0.06432
2868.1,0.06426
2869.6,0.06421
2871.2,0.06417
2872.8,0.06411
2874.4,0.06409
2876.0,0.06403
2877.6,0.06393
2879.2,0.06387
2880.8,0.06383
2882.4,0.06379
2884.0,0.06372
2885.6,0.06367
2887.2,0.06368
2888.8,0.06365
2890.4,0.06354
2892.0,0.06344
2893.6,0.06341
2895.3,0.0634
2896.9,0.06333
2898.5,0.06327
2900.1,0.06329
2901.8,0.06331
2903.4,0.0632
2905.0,0.06311
2906.6,0.06308
2908.3,0.06305
2909.9,0.06305
2911.5,0.06301
2913.2,0.06295
2914.8,0.06296
2916.4,0.06296
2918.1,0.06293
2919.7,0.06288
2921.4,0.06284
2923.0,0.06287
2924.7,0.06285
2926.3,0.06281
2928.0,0.06275
2929.6,0.0627
2931.3,0.06271
2932.9,0.06271
2934.6,0.06267
2936.3,0.06268
2937.9,0.06267
2939.6,0.06264
2941.3,0.06255
2942.9,0.06248
2944.6,0.0625
2946.3,0.06255
2947.9,0.06248
2949.6,0.06244
2951.3,0.06249
2953.0,0.06248
2954.7,0.06241
2956.3,0.06232
2958.0,0.06228
2959.7,0.06227
2961.4,0.06232
2963.1,0.06232
2964.8,0.06224
2966.5,0.06216
2968.2,0.0622
2969.9,0.06224
2971.6,0.06222
2973.3,0.06221
2975.0,0.06218
2976.7,0.06217
2978.4,0.06214
2980.1,0.06211
2981.9,0.06209
2983.6,0.06204
2985.3,0.06204
2987.0,0.06204
2988.7,0.06206
2990.4,0.06207
2992.2,0.06203
2993.9,0.06195
2995.6,0.0619
2997.4,0.06198
2999.1,0.06203
3000.8,0.06197
3002.6,0.06191
3004.3,0.06194
3006.1,0.06195
3007.8,0.06193
3009.5,0.06191
3011.3,0.06184
3013.0,0.06184
3014.8,0.06184
3016.5,0.06182
3018.3,0.0618
3020.1,0.0618
3021.8,0.06178
3023.6,0.06173
3025.3,0.06165
3027.1,0.06167
3028.9,0.06171
3030.6,0.06166
3032.4,0.06166
3034.2,0.06164
3036.0,0.06158
3037.7,0.06158
3039.5,0.06165
3041.3,0.06167
3043.1,0.06159
3044.9,0.06148
3046.7,0.06147
3048.5,0.0615
3050.3,0.06146
3052.1,0.06142
3053.8,0.06141
3055.6,0.06139
3057.4,0.0613
3059.3,0.06128
3061.1,0.0613
3062.9,0.06126
3064.7,0.06125
3066.5,0.06127
3068.3,0.06122
3070.1,0.06118
3071.9,0.06113
3073.8,0.06107
3075.6,0.06106
3077.4,0.06108
3079.2,0.06102
3081.1,0.06102
3082.9,0.06107
3084.7,0.06105
3086.6,0.061
3088.4,0.06093
3090.2,0.0609
3092.1,0.06094
3093.9,0.06095
3095.8,0.06093
3097.6,0.06091
3099.5,0.06092
3101.3,0.06097
3103.2,0.06096
3105.1,0.0609
3106.9,0.06088
3108.8,0.06091
3110.6,0.06094
3112.5,0.06095
3114.4,0.06094
3116.2,0.06095
3118.1,0.061
3120.0,0.06104
3121.9,0.06107
3123.8,0.06108
3125.6,0.06107
3127.5,0.06107
3129.4,0.06111
3131.3,0.06111
3133.2,0.06113
3135.1,0.06124
3137.0,0.0613
3138.9,0.0613
3140.8,0.06128
3142.7,0.06129
3144.6,0.06135
3146.5,0.0614
3148.4,0.06143
3150.3,0.0615
3152.2,0.06159
3154.1,0.06158
3156.1,0.06158
3158.0,0.06173
3159.9,0.06184
3161.8,0.06186
3163.8,0.06191
3165.7,0.06198
3167.6,0.0621
3169.6,0.06216
3171.5,0.06214
3173.5,0.06219
3175.4,0.06235
3177.3,0.06247
3179.3,0.06255
3181.2,0.06262
3183.2,0.0627
3185.1,0.06275
3187.1,0.06284
3189.1,0.06294
3191.0,0.06301
3193.0,0.06312
3195.0,0.06319
3196.9,0.06329
3198.9,0.06339
3200.9,0.06348
3202.9,0.06358
3204.8,0.06363
3206.8,0.06368
3208.8,0.06375
3210.8,0.06389
3212.8,0.06405
3214.8,0.06419
3216.8,0.06429
3218.8,0.06439
3220.8,0.06445
3222.8,0.06452
3224.8,0.06463
3226.8,0.06474
3228.8,0.06485
3230.8,0.06497
3232.8,0.06506
3234.8,0.06514
3236.8,0.06523
3238.9,0.06534
3240.9,0.06545
3242.9,0.06557
3244.9,0.06566
3247.0,0.06572
3249.0,0.0658
3251.1,0.06589
3253.1,0.06604
3255.1,0.06619
3257.2,0.06627
3259.2,0.06633
3261.3,0.06644
3263.3,0.06657
3265.4,0.06668
3267.4,0.06679
3269.5,0.06689
3271.6,0.06698
3273.6,0.06699
3275.7,0.06706
3277.8,0.06719
3279.8,0.06734
3281.9,0.06745
3284.0,0.06752
3286.1,0.06756
3288.2,0.06766
3290.2,0.06777
3292.3,0.06789
3294.4,0.06794
3296.5,0.06802
3298.6,0.06816
3300.7,0.06825
3302.8,0.06834
3304.9,0.0684
3307.0,0.06847
3309.1,0.06859
3311.3,0.06868
3313.4,0.06874
3315.5,0.06881
3317.6,0.06887
3319.7,0.06894
3321.9,0.06906
3324.0,0.06914
3326.1,0.06919
3328.3,0.06931
3330.4,0.06941
3332.5,0.06949
3334.7,0.06952
3336.8,0.06956
3339.0,0.06968
3341.1,0.06975
3343.3,0.0698
3345.4,0.06994
3347.6,0.07
3349.8,0.07004
3351.9,0.07013
3354.1,0.07021
3356.3,0.07024
3358.4,0.07026
3360.6,0.07028
3362.8,0.07034
3365.0,0.07038
3367.2,0.07039
3369.4,0.07044
3371.5,0.07053
3373.7,0.07058
3375.9,0.07061
3378.1,0.07065
3380.3,0.07068
3382.5,0.07073
3384.7,0.07083
3386.9,0.0709
3389.2,0.07096
3391.4,0.07103
3393.6,0.07106
3395.8,0.07108
3398.1,0.07109
3400.3,0.07111
3402.5,0.07115
3404.7,0.07118
3407.0,0.07119
3409.2,0.07116
3411.5,0.07117
3413.7,0.0712
3416.0,0.0712
3418.2,0.07121
3420.5,0.07128
3422.7,0.07144
3425.0,0.07161
3427.3,0.07171
3429.5,0.07184
3431.8,0.07197
3434.1,0.07209
3436.3,0.07223
3438.6,0.07233
3440.9,0.07242
3443.2,0.07252
3445.5,0.07264
3447.8,0.07272
3450.1,0.07276
3452.4,0.07283
3454.6,0.0729
3456.9,0.07301
3459.3,0.07307
3461.6,0.07313
3463.9,0.07323
3466.2,0.07331
3468.5,0.07333
3470.8,0.07336
3473.2,0.07338
3475.5,0.0734
3477.8,0.07346
3480.1,0.07352
3482.5,0.07357
3484.8,0.07362
3487.2,0.07367
3489.5,0.07368
3491.9,0.07368
3494.2,0.07372
3496.6,0.07374
3498.9,0.07372
3501.3,0.07374
3503.7,0.07382
3506.0,0.07389
3508.4,0.07404
3510.8,0.07421
3513.2,0.07434
3515.5,0.07444
3517.9,0.07451
3520.3,0.07459
3522.7,0.07467
3525.1,0.07475
3527.5,0.07485
3529.9,0.07493
3532.3,0.07498
3534.7,0.07508
3537.1,0.07521
3539.5,0.07527
3541.9,0.07528
3544.4,0.07535
3546.8,0.07544
3549.2,0.07551
3551.7,0.07558
3554.1,0.07568
3556.5,0.07573
3559.0,0.07576
3561.4,0.07586
3563.9,0.07591
3566.3,0.07596
3568.8,0.07603
3571.2,0.07605
3573.7,0.07609
3576.1,0.07614
3578.6,0.07619
3581.1,0.07626
3583.6,0.0763
3586.0,0.07637
3588.5,0.0765
3591.0,0.07657
3593.5,0.0766
3596.0,0.07664
3598.5,0.07671
3601.0,0.07676
3603.5,0.07678
3606.0,0.07683
3608.5,0.07693
3611.0,0.07698
3613.5,0.077
3616.1,0.07707
3618.6,0.07717
3621.1,0.07722
3623.6,0.07727
3626.2,0.07733
3628.7,0.07734
3631.3,0.07737
3633.8,0.07741
3636.3,0.07749
3638.9,0.07754
3641.4,0.0776
3644.0,0.07767
3646.6,0.07771
3649.1,0.0777
3651.7,0.07774
3654.3,0.07784
3656.9,0.07793
3659.4,0.07801
3662.0,0.07806
3664.6,0.0781
3667.2,0.07813
3669.8,0.07816
3672.4,0.07821
3675.0,0.07828
3677.6,0.07836
3680.2,0.07844
3682.8,0.07851
3685.4,0.07856
3688.1,0.07857
3690.7,0.07865
3693.3,0.0787
3695.9,0.07871
3698.6,0.07875
3701.2,0.07879
3703.9,0.07884
3706.5,0.07892
3709.2,0.079
3711.8,0.07906
3714.5,0.07909
3717.1,0.07911
3719.8,0.07917
3722.5,0.07924
3725.2,0.07927
3727.8,0.0793
3730.5,0.07936
3733.2,0.07939
3735.9,0.07943
3738.6,0.0795
3741.3,0.07956
3744.0,0.07959
3746.7,0.07963
3749.4,0.07966
3752.1,0.07971
3754.8,0.07976
3757.6,0.0798
3760.3,0.07983
3763.0,0.07988
3765.7,0.07993
3768.5,0.07998
3771.2,0.08002
3774.0,0.08003
3776.7,0.08008
3779.5,0.08016
3782.2,0.08019
3785.0,0.08023
3787.7,0.0803
3790.5,0.08034
3793.3,0.08039
3796.1,0.08043
3798.8,0.08045
3801.6,0.08047
3804.4,0.08051
3807.2,0.08056
3810.0,0.08061
