Database of Origin,University of Winnipeg Spectrophotometer Facility
Sample Description,8. Sulfates: RELAB + Nicolet spectra / Spectra all made consistently merged: Jan. / 10 / 2005
Date Added,2016-07-15 22:05:54.878552

Data ID,RPN_SUL_18          
Sample ID,SPT105
Mineral Name,ammonium sulfate (syn)
Grain Size,45-90
Viewing Geometry,30 / 0 | 30
Resolution,5 / 1.3-129
Material Class,Sulfate

Wavelength
305.0,0.608212
310.0,0.617845
315.0,0.624815
320.0,0.634411
325.0,0.641917
330.0,0.650393
335.0,0.659068
340.0,0.668942
345.0,0.67767
350.0,0.688189
355.0,0.695919
360.0,0.707829
365.0,0.718455
370.0,0.72759
375.0,0.734879
380.0,0.744184
385.0,0.752205
390.0,0.760515
395.0,0.767213
400.0,0.777744
405.0,0.78051
410.0,0.786035
415.0,0.793555
420.0,0.800736
425.0,0.802873
430.0,0.808903
435.0,0.812364
440.0,0.816484
445.0,0.819396
450.0,0.823081
455.0,0.824252
460.0,0.827266
465.0,0.833044
470.0,0.832527
475.0,0.834913
480.0,0.837634
485.0,0.841065
490.0,0.840309
495.0,0.843507
500.0,0.844954
505.0,0.849542
510.0,0.84811
515.0,0.850741
520.0,0.853613
525.0,0.856275
530.0,0.85752
535.0,0.857932
540.0,0.859085
545.0,0.860513
550.0,0.864421
555.0,0.867099
560.0,0.867701
565.0,0.868654
570.0,0.871686
575.0,0.873796
580.0,0.874467
585.0,0.877238
590.0,0.876378
595.0,0.878077
600.0,0.879217
605.0,0.87824
610.0,0.878335
615.0,0.880384
620.0,0.877822
625.0,0.878667
630.0,0.87936
635.0,0.877802
640.0,0.875944
645.0,0.878155
650.0,0.87799
655.0,0.879021
660.0,0.878814
665.0,0.877638
670.0,0.879494
675.0,0.875763
680.0,0.877247
685.0,0.877147
690.0,0.876596
695.0,0.877918
700.0,0.877591
705.0,0.87536
710.0,0.874648
715.0,0.876377
720.0,0.873063
725.0,0.8749
730.0,0.873256
735.0,0.873522
740.0,0.872298
745.0,0.873567
750.0,0.873163
755.0,0.87211
760.0,0.870162
765.0,0.871251
770.0,0.870458
775.0,0.869713
780.0,0.868792
785.0,0.869338
790.0,0.867882
795.0,0.865765
800.0,0.865695
805.0,0.864223
810.0,0.865628
815.0,0.864033
820.0,0.863427
825.0,0.863804
830.0,0.867219
835.0,0.865414
840.0,0.865682
845.0,0.864217
850.0,0.865928
855.0,0.867045
860.0,0.868036
865.0,0.868244
870.0,0.867423
875.0,0.869962
880.0,0.87136
885.0,0.869851
890.0,0.868653
895.0,0.866698
900.0,0.862975
905.0,0.868088
910.0,0.863483
915.0,0.862369
920.0,0.863993
925.0,0.864564
930.0,0.864314
935.0,0.864547
940.0,0.865198
945.0,0.867417
950.0,0.865512
955.0,0.867119
960.0,0.866818
965.0,0.867692
970.0,0.867653
975.0,0.866976
980.0,0.866002
985.0,0.868963
990.0,0.867935
995.0,0.866358
1000.0,0.863577
1005.0,0.862605
1010.0,0.8583
1015.0,0.854879
1020.0,0.850013
1025.0,0.845507
1030.0,0.840152
1035.0,0.833739
1040.0,0.826012
1045.0,0.819801
1050.0,0.812728
1055.0,0.809705
1060.0,0.811632
1065.0,0.807432
1070.0,0.81258
1075.0,0.812927
1080.0,0.816627
1085.0,0.823548
1090.0,0.824823
1095.0,0.828975
1100.0,0.833041
1105.0,0.836634
1110.0,0.840897
1115.0,0.843419
1120.0,0.848531
1125.0,0.848372
1130.0,0.851824
1135.0,0.852502
1140.0,0.853654
1145.0,0.852532
1150.0,0.854052
1155.0,0.853775
1160.0,0.851009
1165.0,0.851802
1170.0,0.849989
1175.0,0.845494
1180.0,0.84204
1185.0,0.841037
1190.0,0.834242
1195.0,0.825813
1200.0,0.818241
1205.0,0.807143
1210.0,0.792537
1215.0,0.778947
1220.0,0.761981
1225.0,0.75053
1230.0,0.735641
1235.0,0.728529
1240.0,0.717776
1245.0,0.707333
1250.0,0.698355
1255.0,0.690122
1260.0,0.682777
1265.0,0.675598
1270.0,0.672979
1275.0,0.669861
1280.0,0.673553
1285.0,0.671677
1290.0,0.671579
1295.0,0.675321
1300.0,0.674233
1305.0,0.678728
1310.0,0.67998
1315.0,0.683393
1320.0,0.686692
1325.0,0.692536
1330.0,0.69357
1335.0,0.701285
1340.0,0.705132
1345.0,0.708044
1350.0,0.710049
1355.0,0.716829
1360.0,0.717214
1365.0,0.723184
1370.0,0.725425
1375.0,0.727478
1380.0,0.728725
1385.0,0.732501
1390.0,0.734561
1395.0,0.732621
1400.0,0.73329
1405.0,0.734634
1410.0,0.734911
1415.0,0.732309
1420.0,0.732351
1425.0,0.726831
1430.0,0.722882
1435.0,0.717503
1440.0,0.712336
1445.0,0.702142
1450.0,0.692222
1455.0,0.683503
1460.0,0.671694
1465.0,0.659849
1470.0,0.646386
1475.0,0.632664
1480.0,0.618612
1485.0,0.601657
1490.0,0.584964
1495.0,0.568144
1500.0,0.550868
1505.0,0.531116
1510.0,0.510466
1515.0,0.488179
1520.0,0.467828
1525.0,0.441341
1530.0,0.417396
1535.0,0.39402
1540.0,0.372433
1545.0,0.353745
1550.0,0.337078
1555.0,0.320233
1560.0,0.307285
1565.0,0.295802
1570.0,0.290429
1575.0,0.288352
1580.0,0.292565
1585.0,0.300182
1590.0,0.30696
1595.0,0.317938
1600.0,0.328658
1605.0,0.337596
1610.0,0.346312
1615.0,0.355464
1620.0,0.363751
1625.0,0.369816
1630.0,0.373117
1635.0,0.376404
1640.0,0.378157
1645.0,0.380924
1650.0,0.387552
1655.0,0.393863
1660.0,0.400381
1665.0,0.408446
1670.0,0.41808
1675.0,0.425735
1680.0,0.433038
1685.0,0.439815
1690.0,0.445759
1695.0,0.45169
1700.0,0.458348
1705.0,0.464265
1710.0,0.468952
1715.0,0.474104
1720.0,0.478046
1725.0,0.482417
1730.0,0.486267
1735.0,0.488663
1740.0,0.49155
1745.0,0.492284
1750.0,0.493661
1755.0,0.495323
1760.0,0.49453
1765.0,0.494306
1770.0,0.493321
1775.0,0.493059
1780.0,0.492072
1785.0,0.489935
1790.0,0.489331
1795.0,0.486124
1800.0,0.483459
1805.0,0.481996
1810.0,0.47973
1815.0,0.476845
1820.0,0.473386
1825.0,0.471998
1830.0,0.4673
1835.0,0.465999
1840.0,0.46109
1845.0,0.456671
1850.0,0.451365
1855.0,0.446781
1860.0,0.440353
1865.0,0.434791
1870.0,0.427328
1875.0,0.420669
1880.0,0.412832
1885.0,0.404906
1890.0,0.396234
1895.0,0.388487
1900.0,0.378826
1905.0,0.370017
1910.0,0.360868
1915.0,0.350834
1920.0,0.340299
1925.0,0.330478
1930.0,0.319565
1935.0,0.309483
1940.0,0.297276
1945.0,0.285516
1950.0,0.272823
1955.0,0.25795
1960.0,0.242077
1965.0,0.226095
1970.0,0.209233
1975.0,0.19241
1980.0,0.175013
1985.0,0.156154
1990.0,0.137939
1995.0,0.120032
2000.0,0.103744
2005.0,0.089887
2010.0,0.080493
2015.0,0.074203
2020.0,0.069166
2025.0,0.066008
2030.0,0.06357
2035.0,0.061417
2040.0,0.059921
2045.0,0.058666
2050.0,0.057171
2055.0,0.056819
2060.0,0.056401
2065.0,0.055638
2070.0,0.055425
2075.0,0.053863
2080.0,0.05132
2085.0,0.049064
2090.0,0.04653
2095.0,0.044316
2100.0,0.041653
2105.0,0.038923
2110.0,0.035951
2115.0,0.033264
2120.0,0.031572
2125.0,0.030093
2130.0,0.02895
2135.0,0.028785
2140.0,0.028389
2145.0,0.028753
2150.0,0.028711
2155.0,0.029204
2160.0,0.029897
2165.0,0.031237
2170.0,0.032754
2175.0,0.034545
2180.0,0.037073
2185.0,0.039691
2190.0,0.042574
2195.0,0.046162
2200.0,0.049383
2205.0,0.052854
2210.0,0.056104
2215.0,0.059315
2220.0,0.062768
2225.0,0.066551
2230.0,0.070574
2235.0,0.074297
2240.0,0.077609
2245.0,0.080993
2250.0,0.085083
2255.0,0.089489
2260.0,0.093426
2265.0,0.097867
2270.0,0.102511
2275.0,0.106381
2280.0,0.110671
2285.0,0.11547
2290.0,0.119182
2295.0,0.123185
2300.0,0.127455
2305.0,0.131856
2310.0,0.136333
2315.0,0.139189
2320.0,0.14268
2325.0,0.147417
2330.0,0.151824
2335.0,0.156195
2340.0,0.161446
2345.0,0.167297
2350.0,0.173558
2355.0,0.17956
2360.0,0.185117
2365.0,0.190867
2370.0,0.196385
2375.0,0.202813
2380.0,0.20966
2385.0,0.216098
2390.0,0.221307
2395.0,0.228288
2400.0,0.235801
2405.0,0.243687
2410.0,0.250482
2415.0,0.257933
2420.0,0.264787
2425.0,0.270217
2430.0,0.274182
2435.0,0.279345
2440.0,0.283718
2445.0,0.287262
2450.0,0.289948
2455.0,0.291148
2460.0,0.291205
2465.0,0.291941
2470.0,0.29076
2475.0,0.288749
2480.0,0.286688
2485.0,0.286415
2490.0,0.283986
2495.0,0.281017
2500.0,0.278156
2505.0,0.276104
2510.0,0.274265
2515.0,0.268572
2520.0,0.265966
2525.0,0.263058
2530.0,0.259667
2535.0,0.257127
2540.0,0.252817
2545.0,0.247791
2550.0,0.244353
2555.0,0.239066
2560.0,0.235387
2565.13,0.230064
2570.22,0.225078
2575.33,0.221513
2580.46,0.216111
2581.74,0.215409
2583.03,0.214397
2584.31,0.212821
2585.6,0.212112
2586.89,0.210552
2588.19,0.208629
2589.48,0.20749
2590.77,0.206604
2592.07,0.20537
2593.36,0.203659
2594.66,0.201451
2595.96,0.201477
2597.26,0.201608
2598.56,0.200603
2599.87,0.198979
2601.17,0.197157
2602.48,0.195468
2603.78,0.194352
2605.09,0.193004
2606.4,0.192179
2607.71,0.191518
2609.03,0.19051
2610.34,0.189085
2611.66,0.187187
2612.97,0.185384
2614.29,0.185144
2615.61,0.18434
2616.93,0.182568
2618.25,0.181527
2619.57,0.180416
2620.9,0.17921
2622.22,0.178526
2623.55,0.176517
2624.88,0.175015
2626.21,0.173884
2627.54,0.173197
2628.87,0.171568
2630.21,0.169263
2631.54,0.168702
2632.88,0.168753
2634.21,0.1679
2635.55,0.166666
2636.89,0.164981
2638.24,0.162974
2639.58,0.16076
2640.92,0.159625
2642.27,0.159049
2643.62,0.157939
2644.97,0.156324
2646.32,0.155311
2647.67,0.154477
2649.02,0.152713
2650.38,0.151006
2651.73,0.149428
2653.09,0.147883
2654.45,0.147059
2655.81,0.145082
2657.17,0.143647
2658.53,0.143232
2659.89,0.142926
2661.26,0.141265
2662.63,0.138822
2664.0,0.137257
2665.36,0.136039
2666.74,0.135079
2668.11,0.135217
2669.48,0.13382
2670.86,0.130787
2672.23,0.1287
2673.61,0.127577
2674.99,0.126599
2676.37,0.125519
2677.76,0.124549
2679.14,0.122959
2680.52,0.120919
2681.91,0.119943
2683.3,0.118323
2684.69,0.117083
2686.08,0.116071
2687.47,0.114506
2688.87,0.113281
2690.26,0.111884
2691.66,0.109772
2693.06,0.107831
2694.46,0.106769
2695.86,0.105591
2697.26,0.104555
2698.66,0.102546
2700.07,0.100683
2701.48,0.099828
2702.89,0.098671
2704.3,0.097485
2705.71,0.096034
2707.12,0.094294
2708.53,0.09286
2709.95,0.092073
2711.37,0.090769
2712.79,0.089248
2714.21,0.088164
2715.63,0.087579
2717.05,0.085511
2718.48,0.084167
2719.9,0.083221
2721.33,0.08098
2722.76,0.079656
2724.19,0.078717
2725.62,0.077542
2727.06,0.076502
2728.49,0.075384
2729.93,0.074228
2731.37,0.072695
2732.81,0.071308
2734.25,0.070624
2735.69,0.069637
2737.14,0.068281
2738.58,0.067473
2740.03,0.06717
2741.48,0.066047
2742.93,0.064136
2744.38,0.062808
2745.83,0.062835
2747.29,0.062465
2748.75,0.061128
2750.2,0.059808
2751.66,0.058714
2753.13,0.058
2754.59,0.057139
2756.05,0.056278
2757.52,0.056187
2758.99,0.055743
2760.46,0.054864
2761.93,0.054162
2763.4,0.05287
2764.87,0.051899
2766.35,0.052003
2767.82,0.050971
2769.3,0.050094
2770.78,0.049874
2772.26,0.048847
2773.75,0.04756
2775.23,0.047242
2776.72,0.047129
2778.21,0.046543
2779.7,0.046357
2781.19,0.045815
2782.68,0.044885
2784.18,0.043872
2785.67,0.043157
2787.17,0.043132
2788.67,0.042327
2790.17,0.042085
2791.67,0.04244
2793.18,0.042435
2794.68,0.041346
2796.19,0.040179
2797.7,0.039668
2799.21,0.039762
2800.72,0.039712
2802.24,0.03945
2803.75,0.039098
2805.27,0.038556
2806.79,0.037599
2808.31,0.036896
2809.83,0.036461
2811.35,0.035664
2812.88,0.035277
2814.41,0.035371
2815.93,0.035011
2817.46,0.034559
2819.0,0.034489
2820.53,0.034062
2822.07,0.032897
2823.6,0.032368
2825.14,0.032128
2826.68,0.03202
2828.22,0.031725
2829.77,0.031217
2831.31,0.031278
2832.86,0.031654
2834.41,0.030289
2835.96,0.02966
2837.51,0.030396
2839.07,0.030468
2840.62,0.029619
2842.18,0.028988
2843.74,0.028357
2845.3,0.027988
2846.86,0.027937
2848.43,0.027726
2849.99,0.028233
2851.56,0.02864
2853.13,0.027866
2854.7,0.027146
2856.27,0.027424
2857.85,0.027335
2859.42,0.026371
2861.0,0.025361
2862.58,0.025274
2864.16,0.025614
2865.75,0.025306
2867.33,0.025249
2868.92,0.02507
2870.51,0.024121
2872.1,0.023633
2873.69,0.024088
2875.28,0.023924
2876.88,0.023837
2878.48,0.023988
2880.07,0.023801
2881.68,0.023249
2883.28,0.022834
2884.88,0.022739
2886.49,0.022658
2888.1,0.022292
2889.71,0.021353
2891.32,0.020972
2892.93,0.021415
2894.55,0.021642
2896.16,0.021258
2897.78,0.021181
2899.4,0.021866
2901.03,0.021688
2902.65,0.020447
2904.28,0.02016
2905.91,0.020496
2907.54,0.019906
2909.17,0.019922
2910.8,0.020066
2912.44,0.019791
2914.07,0.019199
2915.71,0.018846
2917.35,0.018348
2918.99,0.018299
2920.64,0.018401
2922.29,0.018617
2923.93,0.01892
2925.58,0.018166
2927.24,0.017577
2928.89,0.01778
2930.55,0.017746
2932.2,0.017675
2933.86,0.0179
2935.52,0.017224
2937.19,0.015882
2938.85,0.016384
2940.52,0.016493
2942.19,0.016199
2943.86,0.016075
2945.53,0.015892
2947.21,0.015782
2948.88,0.015955
2950.56,0.015639
2952.24,0.015287
2953.92,0.015376
2955.61,0.014817
2957.29,0.01432
2958.98,0.014671
2960.67,0.014623
2962.36,0.014487
2964.06,0.013947
2965.75,0.013345
2967.45,0.013381
2969.15,0.013442
2970.85,0.013181
2972.55,0.012887
2974.26,0.012464
2975.97,0.01249
2977.68,0.012389
2979.39,0.011964
2981.1,0.011829
2982.82,0.011758
2984.53,0.011708
2986.25,0.011418
2987.97,0.011416
2989.7,0.011732
2991.42,0.011959
2993.15,0.011798
2994.88,0.011314
2996.61,0.0112
2998.34,0.011209
3000.08,0.010889
3001.82,0.011128
3003.55,0.011027
3005.3,0.010801
3007.04,0.01069
3008.78,0.010989
3010.53,0.01126
3012.28,0.011867
3014.03,0.012477
3015.79,0.012682
3017.54,0.012583
3019.3,0.012468
3021.06,0.012733
3022.82,0.012935
3024.58,0.012974
3026.35,0.013289
3028.12,0.013722
3029.89,0.014386
3031.66,0.014832
3033.43,0.014909
3035.21,0.014754
3036.99,0.014584
3038.77,0.014808
3040.55,0.014898
3042.33,0.015056
3044.12,0.015449
3045.91,0.01612
3047.7,0.016861
3049.49,0.017217
3051.29,0.017595
3053.08,0.017583
3054.88,0.017331
3056.68,0.017788
3058.49,0.018063
3060.29,0.018284
3062.1,0.018989
3063.91,0.019517
3065.72,0.019203
3067.54,0.019167
3069.35,0.019332
3071.17,0.019778
3072.99,0.020686
3074.81,0.020875
3076.64,0.020958
3078.47,0.021191
3080.29,0.021267
3082.13,0.021408
3083.96,0.021932
3085.79,0.022341
3087.63,0.022508
3089.47,0.023451
3091.31,0.023877
3093.16,0.023822
3095.01,0.023597
3096.85,0.023432
3098.71,0.023674
3100.56,0.024093
3102.41,0.024717
3104.27,0.024919
3106.13,0.025052
3107.99,0.025186
3109.86,0.025409
3111.73,0.025285
3113.59,0.02544
3115.47,0.025937
3117.34,0.026251
3119.21,0.026214
3121.09,0.025974
3122.97,0.025463
3124.86,0.025233
3126.74,0.025696
3128.63,0.025742
3130.52,0.025498
3132.41,0.02532
3134.3,0.02569
3136.2,0.026058
3138.1,0.026256
3140.0,0.026266
3141.9,0.026292
3143.81,0.02603
3145.71,0.025626
3147.62,0.025544
3149.54,0.025962
3151.45,0.026392
3153.37,0.02602
3155.29,0.02569
3157.21,0.025877
3159.13,0.02604
3161.06,0.025865
3162.99,0.025673
3164.92,0.026215
3166.85,0.026759
3168.79,0.026368
3170.72,0.026084
3172.67,0.026073
3174.61,0.026028
3176.55,0.025923
3178.5,0.025713
3180.45,0.025849
3182.4,0.026045
3184.36,0.026074
3186.32,0.025933
3188.27,0.025716
3190.24,0.025417
3192.2,0.025688
3194.17,0.025889
3196.14,0.025367
3198.11,0.025119
3200.08,0.025242
3202.06,0.025566
3204.04,0.025856
3206.02,0.025893
3208.0,0.025697
3209.99,0.025453
3211.98,0.025687
3213.97,0.0258
3215.96,0.025749
3217.96,0.025738
3219.96,0.025744
3221.96,0.0259
3223.96,0.025923
3225.97,0.025715
3227.98,0.02582
3229.99,0.026016
3232.0,0.02533
3234.02,0.025021
3236.04,0.02548
3238.06,0.025602
3240.08,0.025762
3242.11,0.026192
3244.14,0.026427
3246.17,0.026544
3248.2,0.026214
3250.24,0.026144
3252.28,0.026276
3254.32,0.026244
3256.37,0.026795
3258.41,0.02748
3260.46,0.027835
3262.51,0.02767
3264.57,0.027249
3266.63,0.027023
3268.69,0.027079
3270.75,0.027366
3272.81,0.02771
3274.88,0.027701
3276.95,0.027922
3279.02,0.027984
3281.1,0.0278
3283.18,0.027751
3285.26,0.027819
3287.34,0.028267
3289.43,0.028635
3291.51,0.028861
3293.61,0.029188
3295.7,0.028939
3297.8,0.028596
3299.9,0.028419
3302.0,0.028237
3304.1,0.028576
3306.21,0.028933
3308.32,0.028935
3310.43,0.029072
3312.55,0.029196
3314.66,0.029065
3316.79,0.029074
3318.91,0.029195
3321.03,0.029631
3323.16,0.029734
3325.29,0.02937
3327.43,0.029712
3329.57,0.029756
3331.71,0.029641
3333.85,0.029613
3335.99,0.029665
3338.14,0.029839
3340.29,0.029548
3342.45,0.029611
3344.6,0.029869
3346.76,0.029741
3348.92,0.029823
3351.09,0.029635
3353.26,0.029511
3355.43,0.029795
3357.6,0.02995
3359.78,0.029551
3361.96,0.029115
3364.14,0.029463
3366.32,0.029992
3368.51,0.030283
3370.7,0.030263
3372.89,0.029935
3375.09,0.029981
3377.29,0.030113
3379.49,0.030298
3381.69,0.029968
3383.9,0.03013
3386.11,0.030429
3388.32,0.029972
3390.54,0.030176
3392.76,0.030404
3394.98,0.030378
3397.21,0.030377
3399.43,0.030113
3401.66,0.030008
3403.9,0.030149
3406.13,0.030347
3408.37,0.030166
3410.61,0.030026
3412.86,0.030152
3415.11,0.029993
3417.36,0.02996
3419.61,0.030237
3421.87,0.03021
3424.13,0.030401
3426.39,0.030214
3428.66,0.029574
3430.93,0.029735
3433.2,0.030386
3435.48,0.030409
3437.76,0.030152
3440.04,0.029798
3442.32,0.02963
3444.61,0.029856
3446.9,0.029706
3449.19,0.029377
3451.49,0.029493
3453.79,0.029749
3456.09,0.02975
3458.4,0.029628
3460.7,0.029523
3463.02,0.029686
3465.33,0.029958
3467.65,0.030052
3469.97,0.030013
3472.29,0.029917
3474.62,0.030097
3476.95,0.030437
3479.29,0.030246
3481.62,0.029745
3483.96,0.029837
3486.3,0.030142
3488.65,0.030118
3491.0,0.029763
3493.35,0.029926
3495.71,0.030424
3498.07,0.030567
3500.43,0.030632
3502.79,0.030613
3505.16,0.030858
3507.53,0.03112
3509.91,0.030735
3512.29,0.030575
3514.67,0.030858
3517.05,0.030864
3519.44,0.030652
3521.83,0.030474
3524.23,0.030363
3526.62,0.030656
3529.02,0.030983
3531.43,0.031024
3533.83,0.031256
3536.24,0.031351
3538.66,0.031617
3541.08,0.031631
3543.5,0.031345
3545.92,0.03128
3548.35,0.031144
3550.78,0.031304
3553.21,0.03147
3555.65,0.031525
3558.09,0.031714
3560.53,0.031979
3562.98,0.031896
3565.43,0.031815
3567.88,0.031981
3570.34,0.032136
3572.8,0.031907
3575.27,0.031769
3577.73,0.032032
3580.2,0.032035
3582.68,0.031756
3585.16,0.031845
3587.64,0.031752
3590.12,0.031883
3592.61,0.032315
3595.1,0.032247
3597.6,0.032118
3600.09,0.032168
3602.6,0.032312
3605.1,0.032696
3607.61,0.033058
3610.12,0.032939
3612.64,0.032818
3615.16,0.032786
3617.68,0.03239
3620.21,0.032379
3622.74,0.032665
3625.27,0.032813
3627.81,0.032811
3630.35,0.032924
3632.89,0.03259
3635.44,0.032618
3637.99,0.032962
3640.54,0.032805
3643.1,0.032609
3645.66,0.032656
3648.23,0.03272
3650.8,0.032665
3653.37,0.032661
3655.95,0.033078
3658.53,0.033293
3661.11,0.033094
3663.7,0.033105
3666.29,0.033209
3668.89,0.03287
3671.48,0.032689
3674.09,0.032951
3676.69,0.03316
3679.3,0.033089
3681.91,0.03302
3684.53,0.033168
3687.15,0.033338
3689.78,0.033404
3692.4,0.033429
3695.04,0.033603
3697.67,0.033657
3700.31,0.033221
3702.95,0.033448
3705.6,0.033749
3708.25,0.033784
3710.91,0.033778
3713.56,0.033615
3716.23,0.033519
3718.89,0.033404
3721.56,0.033272
3724.23,0.033576
3726.91,0.033796
3729.59,0.033925
3732.28,0.033881
3734.97,0.033995
3737.66,0.03407
3740.36,0.034173
3743.06,0.034192
3745.76,0.033936
3748.47,0.034024
3751.18,0.034195
3753.9,0.034284
3756.62,0.034254
3759.34,0.034321
3762.07,0.034678
3764.8,0.034676
3767.54,0.03478
3770.28,0.034936
3773.02,0.034754
3775.77,0.034679
3778.52,0.034844
3781.28,0.035129
3784.04,0.035123
3786.8,0.035122
3789.57,0.035116
3792.34,0.035198
3795.12,0.03534
3797.9,0.035269
3800.69,0.035347
3803.47,0.035512
3806.27,0.035696
3809.06,0.035746
3811.86,0.035808
3814.67,0.036004
3817.48,0.036049
3820.29,0.036131
3823.11,0.036486
3825.93,0.037022
3828.76,0.037161
3831.59,0.036839
3834.42,0.036811
3837.26,0.037016
3840.1,0.037273
3842.95,0.037499
3845.8,0.037649
3848.65,0.037946
3851.51,0.038173
3854.38,0.038236
3857.24,0.038174
3860.12,0.038105
3862.99,0.038179
3865.87,0.038409
3868.76,0.038729
3871.65,0.039025
3874.54,0.039041
3877.44,0.039283
3880.34,0.039773
3883.25,0.03993
3886.16,0.040085
