Database of Origin,University of Winnipeg Spectrophotometer Facility
Sample Description,8. Sulfates: RELAB + Nicolet spectra / Spectra all made consistently merged: Jan. / 10 / 2005
Date Added,2016-07-15 22:05:54.759920

Data ID,RPN_SUL_09          
Sample ID,SPT102
Mineral Name,Boussingalutite
Grain Size,45-90
Viewing Geometry,30 / 0 | 30
Resolution,5 / 1.3-129
Material Class,Sulfate

Wavelength
305.0,0.171687
310.0,0.171261
315.0,0.174075
320.0,0.176941
325.0,0.181364
330.0,0.187585
335.0,0.1948
340.0,0.203699
345.0,0.214411
350.0,0.225107
355.0,0.238012
360.0,0.251041
365.0,0.26478
370.0,0.278307
375.0,0.290735
380.0,0.304451
385.0,0.318126
390.0,0.331762
395.0,0.347129
400.0,0.361914
405.0,0.376109
410.0,0.389391
415.0,0.401019
420.0,0.410819
425.0,0.419402
430.0,0.427786
435.0,0.437832
440.0,0.44589
445.0,0.453528
450.0,0.460023
455.0,0.466594
460.0,0.472652
465.0,0.478925
470.0,0.483821
475.0,0.488958
480.0,0.496623
485.0,0.501225
490.0,0.506781
495.0,0.511622
500.0,0.517253
505.0,0.522772
510.0,0.527501
515.0,0.532819
520.0,0.537445
525.0,0.543777
530.0,0.546018
535.0,0.553062
540.0,0.557657
545.0,0.562184
550.0,0.567019
555.0,0.571811
560.0,0.577105
565.0,0.58245
570.0,0.585348
575.0,0.591496
580.0,0.595244
585.0,0.600827
590.0,0.605503
595.0,0.610408
600.0,0.615764
605.0,0.620081
610.0,0.62362
615.0,0.628275
620.0,0.632742
625.0,0.637307
630.0,0.640213
635.0,0.64544
640.0,0.649752
645.0,0.653012
650.0,0.656169
655.0,0.661479
660.0,0.66579
665.0,0.671332
670.0,0.67409
675.0,0.676958
680.0,0.68223
685.0,0.685115
690.0,0.689037
695.0,0.693301
700.0,0.695619
705.0,0.696892
710.0,0.701823
715.0,0.703676
720.0,0.706259
725.0,0.709878
730.0,0.711746
735.0,0.71429
740.0,0.717807
745.0,0.721988
750.0,0.721569
755.0,0.72514
760.0,0.727632
765.0,0.73015
770.0,0.732696
775.0,0.734265
780.0,0.736611
785.0,0.739166
790.0,0.739935
795.0,0.740666
800.0,0.744704
805.0,0.746364
810.0,0.745896
815.0,0.746863
820.0,0.748829
825.0,0.750824
830.0,0.751414
835.0,0.750464
840.0,0.753316
845.0,0.751516
850.0,0.753998
855.0,0.752904
860.0,0.752872
865.0,0.755138
870.0,0.755354
875.0,0.754799
880.0,0.753026
885.0,0.755842
890.0,0.755442
895.0,0.754167
900.0,0.754147
905.0,0.7541
910.0,0.75304
915.0,0.754609
920.0,0.753321
925.0,0.75371
930.0,0.753528
935.0,0.751241
940.0,0.754449
945.0,0.752402
950.0,0.754081
955.0,0.751452
960.0,0.750415
965.0,0.748807
970.0,0.748409
975.0,0.745771
980.0,0.746678
985.0,0.744734
990.0,0.746534
995.0,0.742827
1000.0,0.741068
1005.0,0.74088
1010.0,0.741993
1015.0,0.742851
1020.0,0.740071
1025.0,0.740067
1030.0,0.739918
1035.0,0.739281
1040.0,0.737598
1045.0,0.739892
1050.0,0.738341
1055.0,0.740046
1060.0,0.737622
1065.0,0.738602
1070.0,0.737529
1075.0,0.739785
1080.0,0.738841
1085.0,0.741276
1090.0,0.74078
1095.0,0.741933
1100.0,0.74143
1105.0,0.738688
1110.0,0.739568
1115.0,0.741422
1120.0,0.74254
1125.0,0.738971
1130.0,0.739667
1135.0,0.737897
1140.0,0.737914
1145.0,0.739516
1150.0,0.735207
1155.0,0.732739
1160.0,0.731965
1165.0,0.727548
1170.0,0.721874
1175.0,0.717869
1180.0,0.716577
1185.0,0.714979
1190.0,0.713163
1195.0,0.709787
1200.0,0.706077
1205.0,0.702921
1210.0,0.699034
1215.0,0.695743
1220.0,0.692209
1225.0,0.689197
1230.0,0.683897
1235.0,0.681728
1240.0,0.676431
1245.0,0.673739
1250.0,0.672357
1255.0,0.670573
1260.0,0.668133
1265.0,0.666811
1270.0,0.667481
1275.0,0.666069
1280.0,0.66779
1285.0,0.671389
1290.0,0.669629
1295.0,0.672209
1300.0,0.67473
1305.0,0.673152
1310.0,0.675196
1315.0,0.676822
1320.0,0.675288
1325.0,0.675234
1330.0,0.674357
1335.0,0.670395
1340.0,0.668869
1345.0,0.666132
1350.0,0.661553
1355.0,0.658454
1360.0,0.655175
1365.0,0.654349
1370.0,0.652146
1375.0,0.647183
1380.0,0.642984
1385.0,0.640871
1390.0,0.6377
1395.0,0.6291
1400.0,0.623759
1405.0,0.612893
1410.0,0.60524
1415.0,0.592472
1420.0,0.579194
1425.0,0.561065
1430.0,0.54095
1435.0,0.519527
1440.0,0.49694
1445.0,0.482537
1450.0,0.478313
1455.0,0.475165
1460.0,0.4674
1465.0,0.456318
1470.0,0.442603
1475.0,0.428803
1480.0,0.416593
1485.0,0.402161
1490.0,0.392839
1495.0,0.38647
1500.0,0.383085
1505.0,0.382266
1510.0,0.379788
1515.0,0.380867
1520.0,0.380366
1525.0,0.376932
1530.0,0.373919
1535.0,0.370368
1540.0,0.365746
1545.0,0.362089
1550.0,0.358543
1555.0,0.354185
1560.0,0.351529
1565.0,0.349664
1570.0,0.348946
1575.0,0.347844
1580.0,0.347701
1585.0,0.349188
1590.0,0.347715
1595.0,0.348504
1600.0,0.350392
1605.0,0.352096
1610.0,0.353691
1615.0,0.355611
1620.0,0.357932
1625.0,0.361233
1630.0,0.364507
1635.0,0.369479
1640.0,0.373063
1645.0,0.374515
1650.0,0.379456
1655.0,0.382988
1660.0,0.38735
1665.0,0.39228
1670.0,0.397791
1675.0,0.401468
1680.0,0.40353
1685.0,0.406664
1690.0,0.410052
1695.0,0.412918
1700.0,0.416637
1705.0,0.419517
1710.0,0.424395
1715.0,0.427403
1720.0,0.431619
1725.0,0.433212
1730.0,0.436023
1735.0,0.436083
1740.0,0.437077
1745.0,0.438433
1750.0,0.437685
1755.0,0.436062
1760.0,0.435431
1765.0,0.432718
1770.0,0.43304
1775.0,0.432475
1780.0,0.431809
1785.0,0.432
1790.0,0.432291
1795.0,0.433387
1800.0,0.435134
1805.0,0.436474
1810.0,0.437733
1815.0,0.439133
1820.0,0.440166
1825.0,0.442881
1830.0,0.441342
1835.0,0.442325
1840.0,0.441351
1845.0,0.441145
1850.0,0.439133
1855.0,0.434883
1860.0,0.431468
1865.0,0.426176
1870.0,0.417388
1875.0,0.409608
1880.0,0.39613
1885.0,0.382243
1890.0,0.36637
1895.0,0.346677
1900.0,0.327632
1905.0,0.307512
1910.0,0.287597
1915.0,0.266112
1920.0,0.245137
1925.0,0.223318
1930.0,0.20321
1935.0,0.182019
1940.0,0.166585
1945.0,0.16252
1950.0,0.163208
1955.0,0.161404
1960.0,0.153792
1965.0,0.146494
1970.0,0.138572
1975.0,0.13206
1980.0,0.127527
1985.0,0.123175
1990.0,0.121231
1995.0,0.119199
2000.0,0.119763
2005.0,0.118876
2010.0,0.118709
2015.0,0.116987
2020.0,0.11627
2025.0,0.114478
2030.0,0.114079
2035.0,0.11328
2040.0,0.113123
2045.0,0.113459
2050.0,0.114687
2055.0,0.116388
2060.0,0.118234
2065.0,0.120005
2070.0,0.120933
2075.0,0.122764
2080.0,0.124436
2085.0,0.124834
2090.0,0.12454
2095.0,0.123206
2100.0,0.121014
2105.0,0.118214
2110.0,0.115653
2115.0,0.112091
2120.0,0.107654
2125.0,0.104949
2130.0,0.103109
2135.0,0.101609
2140.0,0.099755
2145.0,0.098926
2150.0,0.098871
2155.0,0.099006
2160.0,0.1001
2165.0,0.10077
2170.0,0.102659
2175.0,0.10521
2180.0,0.108147
2185.0,0.112594
2190.0,0.117805
2195.0,0.123909
2200.0,0.13014
2205.0,0.136153
2210.0,0.140544
2215.0,0.144725
2220.0,0.14794
2225.0,0.152712
2230.0,0.159273
2235.0,0.164716
2240.0,0.170666
2245.0,0.176548
2250.0,0.182447
2255.0,0.188288
2260.0,0.194361
2265.0,0.200227
2270.0,0.205862
2275.0,0.208763
2280.0,0.210326
2285.0,0.209901
2290.0,0.209372
2295.0,0.207094
2300.0,0.204198
2305.0,0.202092
2310.0,0.200686
2315.0,0.199374
2320.0,0.197279
2325.0,0.194451
2330.0,0.191857
2335.0,0.187852
2340.0,0.183386
2345.0,0.178742
2350.0,0.173692
2355.0,0.168348
2360.0,0.163291
2365.0,0.157224
2370.0,0.150506
2375.0,0.14413
2380.0,0.137796
2385.0,0.132335
2390.0,0.126891
2395.0,0.122043
2400.0,0.117202
2405.0,0.113946
2410.0,0.11204
2415.0,0.110123
2420.0,0.108382
2425.0,0.108059
2430.0,0.109367
2435.0,0.111427
2440.0,0.113851
2445.0,0.116353
2450.0,0.12001
2455.0,0.122341
2460.0,0.124399
2465.0,0.124966
2470.0,0.12521
2475.0,0.124258
2480.0,0.123039
2485.0,0.120258
2490.0,0.117978
2495.0,0.114134
2500.0,0.111841
2505.0,0.108723
2510.0,0.106591
2515.0,0.105223
2520.0,0.10407
2525.0,0.103361
2530.0,0.102676
2535.0,0.10236
2540.0,0.102768
2545.0,0.1017
2550.0,0.10152
2555.0,0.09981
2560.0,0.099
2565.13,0.100819
2570.22,0.098882
2575.33,0.098992
2580.46,0.096285
2581.74,0.096095
2583.03,0.097364
2584.31,0.097943
2585.6,0.098147
2586.89,0.097501
2588.19,0.09707
2589.48,0.096643
2590.77,0.096099
2592.07,0.096141
2593.36,0.09589
2594.66,0.094723
2595.96,0.094613
2597.26,0.095427
2598.56,0.095857
2599.87,0.095646
2601.17,0.095724
2602.48,0.094736
2603.78,0.094089
2605.09,0.093174
2606.4,0.093228
2607.71,0.094412
2609.03,0.094244
2610.34,0.093359
2611.66,0.09335
2612.97,0.09317
2614.29,0.092771
2615.61,0.092122
2616.93,0.091981
2618.25,0.092285
2619.57,0.091789
2620.9,0.091878
2622.22,0.091467
2623.55,0.090719
2624.88,0.090369
2626.21,0.089792
2627.54,0.089298
2628.87,0.08935
2630.21,0.089196
2631.54,0.088818
2632.88,0.08758
2634.21,0.087652
2635.55,0.087751
2636.89,0.086849
2638.24,0.08681
2639.58,0.086567
2640.92,0.086035
2642.27,0.085259
2643.62,0.084249
2644.97,0.083749
2646.32,0.083872
2647.67,0.083617
2649.02,0.082561
2650.38,0.081702
2651.73,0.080726
2653.09,0.079996
2654.45,0.080286
2655.81,0.079394
2657.17,0.078282
2658.53,0.077573
2659.89,0.076602
2661.26,0.076506
2662.63,0.07581
2664.0,0.074992
2665.36,0.074197
2666.74,0.07313
2668.11,0.072196
2669.48,0.071323
2670.86,0.070454
2672.23,0.069633
2673.61,0.068458
2674.99,0.06742
2676.37,0.066658
2677.76,0.065917
2679.14,0.064222
2680.52,0.063297
2681.91,0.063313
2683.3,0.062419
2684.69,0.061656
2686.08,0.060355
2687.47,0.059196
2688.87,0.058911
2690.26,0.058445
2691.66,0.0572
2693.06,0.056288
2694.46,0.055084
2695.86,0.053507
2697.26,0.052324
2698.66,0.051841
2700.07,0.051272
2701.48,0.050811
2702.89,0.050479
2704.3,0.049334
2705.71,0.048251
2707.12,0.047348
2708.53,0.045989
2709.95,0.044876
2711.37,0.043436
2712.79,0.042364
2714.21,0.041602
2715.63,0.041546
2717.05,0.04062
2718.48,0.039072
2719.9,0.038477
2721.33,0.038269
2722.76,0.037486
2724.19,0.036606
2725.62,0.03597
2727.06,0.034514
2728.49,0.03295
2729.93,0.032528
2731.37,0.032193
2732.81,0.031614
2734.25,0.030084
2735.69,0.028586
2737.14,0.027868
2738.58,0.027777
2740.03,0.027643
2741.48,0.026324
2742.93,0.025661
2744.38,0.025142
2745.83,0.023965
2747.29,0.022534
2748.75,0.021915
2750.2,0.021361
2751.66,0.020589
2753.13,0.020054
2754.59,0.020346
2756.05,0.020351
2757.52,0.018832
2758.99,0.017575
2760.46,0.016537
2761.93,0.016188
2763.4,0.01598
2764.87,0.015609
2766.35,0.014829
2767.82,0.014305
2769.3,0.014147
2770.78,0.013613
2772.26,0.013835
2773.75,0.014015
2775.23,0.013034
2776.72,0.012201
2778.21,0.011337
2779.7,0.010446
2781.19,0.010435
2782.68,0.010698
2784.18,0.010665
2785.67,0.010464
2787.17,0.010069
2788.67,0.009205
2790.17,0.009142
2791.67,0.009069
2793.18,0.009126
2794.68,0.008662
2796.19,0.007873
2797.7,0.007921
2799.21,0.008068
2800.72,0.008391
2802.24,0.008647
2803.75,0.008182
2805.27,0.007746
2806.79,0.007865
2808.31,0.00788
2809.83,0.007652
2811.35,0.007414
2812.88,0.007617
2814.41,0.007693
2815.93,0.007723
2817.46,0.00782
2819.0,0.007437
2820.53,0.007086
2822.07,0.007366
2823.6,0.007321
2825.14,0.00689
2826.68,0.006876
2828.22,0.007572
2829.77,0.007229
2831.31,0.006381
2832.86,0.005747
2834.41,0.005785
2835.96,0.006204
2837.51,0.006702
2839.07,0.006477
2840.62,0.006703
2842.18,0.007013
2843.74,0.006454
2845.3,0.00658
2846.86,0.006585
2848.43,0.006126
2849.99,0.006113
2851.56,0.005963
2853.13,0.006024
2854.7,0.005878
2856.27,0.005957
2857.85,0.006326
2859.42,0.006685
2861.0,0.006563
2862.58,0.005804
2864.16,0.005577
2865.75,0.005475
2867.33,0.005621
2868.92,0.005935
2870.51,0.005723
2872.1,0.005427
2873.69,0.00542
2875.28,0.005473
2876.88,0.005476
2878.48,0.005766
2880.07,0.00532
2881.68,0.005346
2883.28,0.005868
2884.88,0.006103
2886.49,0.005775
2888.1,0.005717
2889.71,0.006496
2891.32,0.006255
2892.93,0.005302
2894.55,0.0049
2896.16,0.005622
2897.78,0.005957
2899.4,0.00549
2901.03,0.005443
2902.65,0.005248
2904.28,0.005031
2905.91,0.005139
2907.54,0.005306
2909.17,0.005238
2910.8,0.005168
2912.44,0.004879
2914.07,0.004836
2915.71,0.005496
2917.35,0.006059
2918.99,0.005988
2920.64,0.005574
2922.29,0.005446
2923.93,0.005408
2925.58,0.005538
2927.24,0.005355
2928.89,0.004927
2930.55,0.005259
2932.2,0.005482
2933.86,0.005397
2935.52,0.005405
2937.19,0.005685
2938.85,0.005792
2940.52,0.005518
2942.19,0.005075
2943.86,0.00513
2945.53,0.005847
2947.21,0.005988
2948.88,0.005583
2950.56,0.005773
2952.24,0.006007
2953.92,0.005764
2955.61,0.005779
2957.29,0.005848
2958.98,0.006013
2960.67,0.006265
2962.36,0.006311
2964.06,0.005953
2965.75,0.005541
2967.45,0.005377
2969.15,0.005549
2970.85,0.005568
2972.55,0.005391
2974.26,0.005476
2975.97,0.005905
2977.68,0.005867
2979.39,0.005999
2981.1,0.006082
2982.82,0.005838
2984.53,0.00578
2986.25,0.00574
2987.97,0.005836
2989.7,0.005706
2991.42,0.005879
2993.15,0.005736
2994.88,0.005802
2996.61,0.006351
2998.34,0.006034
3000.08,0.005737
3001.82,0.005822
3003.55,0.006426
3005.3,0.006261
3007.04,0.005691
3008.78,0.005867
3010.53,0.005785
3012.28,0.005947
3014.03,0.006064
3015.79,0.006034
3017.54,0.006244
3019.3,0.006225
3021.06,0.006173
3022.82,0.00663
3024.58,0.006927
3026.35,0.00676
3028.12,0.006899
3029.89,0.007061
3031.66,0.007283
3033.43,0.00738
3035.21,0.007226
3036.99,0.00707
3038.77,0.007028
3040.55,0.007059
3042.33,0.007021
3044.12,0.006755
3045.91,0.006765
3047.7,0.007127
3049.49,0.006911
3051.29,0.00645
3053.08,0.006595
3054.88,0.00681
3056.68,0.007229
3058.49,0.007795
3060.29,0.008
3062.1,0.007862
3063.91,0.007819
3065.72,0.008229
3067.54,0.008616
3069.35,0.008481
3071.17,0.00807
3072.99,0.008202
3074.81,0.007921
3076.64,0.007467
3078.47,0.007757
3080.29,0.008006
3082.13,0.008072
3083.96,0.008144
3085.79,0.008129
3087.63,0.008267
3089.47,0.008664
3091.31,0.008705
3093.16,0.008737
3095.01,0.008932
3096.85,0.008818
3098.71,0.008242
3100.56,0.008277
3102.41,0.008742
3104.27,0.008669
3106.13,0.00863
3107.99,0.008456
3109.86,0.008376
3111.73,0.008468
3113.59,0.008628
3115.47,0.008706
3117.34,0.008751
3119.21,0.008994
3121.09,0.009162
3122.97,0.008942
3124.86,0.009173
3126.74,0.009225
3128.63,0.009229
3130.52,0.009055
3132.41,0.008838
3134.3,0.009133
3136.2,0.009423
3138.1,0.009062
3140.0,0.008816
3141.9,0.008959
3143.81,0.009068
3145.71,0.009325
3147.62,0.009192
3149.54,0.009162
3151.45,0.00924
3153.37,0.00913
3155.29,0.009216
3157.21,0.009282
3159.13,0.008983
3161.06,0.009066
3162.99,0.00943
3164.92,0.009542
3166.85,0.009434
3168.79,0.009159
3170.72,0.008631
3172.67,0.008779
3174.61,0.009353
3176.55,0.009381
3178.5,0.009103
3180.45,0.00884
3182.4,0.008489
3184.36,0.008536
3186.32,0.008849
3188.27,0.008949
3190.24,0.009456
3192.2,0.009795
3194.17,0.009767
3196.14,0.010038
3198.11,0.010261
3200.08,0.009929
3202.06,0.009155
3204.04,0.009135
3206.02,0.009251
3208.0,0.009057
3209.99,0.008914
3211.98,0.008561
3213.97,0.008655
3215.96,0.008864
3217.96,0.008979
3219.96,0.008976
3221.96,0.009013
3223.96,0.008806
3225.97,0.008745
3227.98,0.00856
3229.99,0.008514
3232.0,0.009032
3234.02,0.009238
3236.04,0.009101
3238.06,0.009041
3240.08,0.009116
3242.11,0.00917
3244.14,0.00923
3246.17,0.009294
3248.2,0.009326
3250.24,0.008937
3252.28,0.008784
3254.32,0.00906
3256.37,0.009239
3258.41,0.009577
3260.46,0.010093
3262.51,0.009941
3264.57,0.009424
3266.63,0.009827
3268.69,0.010097
3270.75,0.010243
3272.81,0.010131
3274.88,0.009812
3276.95,0.009613
3279.02,0.009552
3281.1,0.009665
3283.18,0.009647
3285.26,0.009602
3287.34,0.00982
3289.43,0.009651
3291.51,0.009818
3293.61,0.009818
3295.7,0.009747
3297.8,0.009811
3299.9,0.010047
3302.0,0.010293
3304.1,0.010629
3306.21,0.010934
3308.32,0.010933
3310.43,0.010599
3312.55,0.0105
3314.66,0.010453
3316.79,0.010032
3318.91,0.009633
3321.03,0.009826
3323.16,0.009949
3325.29,0.009621
3327.43,0.009799
3329.57,0.010123
3331.71,0.010186
3333.85,0.010607
3335.99,0.010886
3338.14,0.011022
3340.29,0.010606
3342.45,0.010316
3344.6,0.010077
3346.76,0.010328
3348.92,0.01057
3351.09,0.010321
3353.26,0.010647
3355.43,0.011142
3357.6,0.011189
3359.78,0.010905
3361.96,0.01085
3364.14,0.011147
3366.32,0.011044
3368.51,0.010507
3370.7,0.010394
3372.89,0.010322
3375.09,0.010414
3377.29,0.010753
3379.49,0.010949
3381.69,0.010924
3383.9,0.011264
3386.11,0.011494
3388.32,0.011187
3390.54,0.010951
3392.76,0.010856
3394.98,0.010845
3397.21,0.011087
3399.43,0.011166
3401.66,0.011083
3403.9,0.010989
3406.13,0.011059
3408.37,0.011381
3410.61,0.01139
3412.86,0.011355
3415.11,0.011391
3417.36,0.010992
3419.61,0.010767
3421.87,0.01088
3424.13,0.011099
3426.39,0.010905
3428.66,0.010506
3430.93,0.010544
3433.2,0.010855
3435.48,0.011062
3437.76,0.011158
3440.04,0.011374
3442.32,0.011708
3444.61,0.011543
3446.9,0.011521
3449.19,0.011282
3451.49,0.01127
3453.79,0.011184
3456.09,0.010893
3458.4,0.0109
3460.7,0.011217
3463.02,0.011522
3465.33,0.011614
3467.65,0.011732
3469.97,0.011721
3472.29,0.011335
3474.62,0.010936
3476.95,0.010985
3479.29,0.011183
3481.62,0.01125
3483.96,0.011201
3486.3,0.011021
3488.65,0.011121
3491.0,0.010957
3493.35,0.010853
3495.71,0.011318
3498.07,0.011404
3500.43,0.011728
3502.79,0.011926
3505.16,0.011903
3507.53,0.012232
3509.91,0.012151
3512.29,0.011837
3514.67,0.011706
3517.05,0.011981
3519.44,0.012079
3521.83,0.011708
3524.23,0.011755
3526.62,0.012209
3529.02,0.012375
3531.43,0.012041
3533.83,0.012059
3536.24,0.012476
3538.66,0.012852
3541.08,0.01291
3543.5,0.012647
3545.92,0.013135
3548.35,0.013131
3550.78,0.012624
3553.21,0.012881
3555.65,0.013356
3558.09,0.013607
3560.53,0.013535
3562.98,0.013378
3565.43,0.01355
3567.88,0.014013
3570.34,0.014127
3572.8,0.013929
3575.27,0.013837
3577.73,0.013752
3580.2,0.013844
3582.68,0.014
3585.16,0.014024
3587.64,0.014413
3590.12,0.014782
3592.61,0.014646
3595.1,0.014831
3597.6,0.015222
3600.09,0.015188
3602.6,0.015051
3605.1,0.01488
3607.61,0.015035
3610.12,0.015095
3612.64,0.014963
3615.16,0.014961
3617.68,0.015189
3620.21,0.015373
3622.74,0.015656
3625.27,0.015967
3627.81,0.01601
3630.35,0.01618
3632.89,0.016302
3635.44,0.016072
3637.99,0.016096
3640.54,0.01676
3643.1,0.017125
3645.66,0.017092
3648.23,0.017134
3650.8,0.016878
3653.37,0.01715
3655.95,0.017435
3658.53,0.017457
3661.11,0.017573
3663.7,0.017694
3666.29,0.017694
3668.89,0.017889
3671.48,0.017967
3674.09,0.017823
3676.69,0.018019
3679.3,0.018163
3681.91,0.018064
3684.53,0.018369
3687.15,0.018758
3689.78,0.019074
3692.4,0.01904
3695.04,0.019105
3697.67,0.019064
3700.31,0.01934
3702.95,0.019439
3705.6,0.019363
3708.25,0.019619
3710.91,0.020091
3713.56,0.02006
3716.23,0.019911
3718.89,0.019923
3721.56,0.02014
3724.23,0.020403
3726.91,0.020807
3729.59,0.020849
3732.28,0.021118
3734.97,0.021467
3737.66,0.021297
3740.36,0.021255
3743.06,0.021385
3745.76,0.021716
3748.47,0.02195
3751.18,0.022067
3753.9,0.022111
3756.62,0.022031
3759.34,0.022353
3762.07,0.022796
3764.8,0.022669
3767.54,0.022435
3770.28,0.022602
3773.02,0.022994
3775.77,0.023258
3778.52,0.023048
3781.28,0.023173
3784.04,0.023653
3786.8,0.023741
3789.57,0.023765
3792.34,0.024156
3795.12,0.024488
3797.9,0.024652
3800.69,0.024681
3803.47,0.024944
3806.27,0.025187
3809.06,0.025265
3811.86,0.025351
3814.67,0.025591
3817.48,0.025651
3820.29,0.025851
3823.11,0.026271
3825.93,0.026474
3828.76,0.026299
3831.59,0.026473
3834.42,0.026672
3837.26,0.026565
3840.1,0.026611
3842.95,0.026997
3845.8,0.027378
3848.65,0.027492
3851.51,0.027703
3854.38,0.027913
3857.24,0.027751
3860.12,0.027709
3862.99,0.027843
3865.87,0.02792
3868.76,0.028217
3871.65,0.028543
3874.54,0.028706
3877.44,0.02899
3880.34,0.028893
3883.25,0.02892
3886.16,0.028936
3889.07,0.029021
3891.99,0.029025
