Database of Origin,University of Winnipeg Spectrophotometer Facility
Sample Description,8. Sulfates: RELAB + Nicolet spectra / Spectra all made consistently merged: Jan. / 10 / 2005
Date Added,2016-07-15 22:05:55.151875

Data ID,RPN_SUL_33          
Sample ID,SPT118
Mineral Name,Halotrichite
Grain Size,<45
Viewing Geometry,30 / 0 | 30
Resolution,5 / 1.3-129
Material Class,Sulfate

Wavelength
305.0,0.599693
310.0,0.611725
315.0,0.63229
320.0,0.651574
325.0,0.663162
330.0,0.678317
335.0,0.690516
340.0,0.703329
345.0,0.713998
350.0,0.722964
355.0,0.74342
360.0,0.753656
365.0,0.76414
370.0,0.778775
375.0,0.78385
380.0,0.797146
385.0,0.802402
390.0,0.813677
395.0,0.821389
400.0,0.831244
405.0,0.841386
410.0,0.843772
415.0,0.850938
420.0,0.855356
425.0,0.858022
430.0,0.860872
435.0,0.862484
440.0,0.872296
445.0,0.875688
450.0,0.881048
455.0,0.883204
460.0,0.886574
465.0,0.888819
470.0,0.889012
475.0,0.894243
480.0,0.893003
485.0,0.899498
490.0,0.89836
495.0,0.904605
500.0,0.903583
505.0,0.907934
510.0,0.908303
515.0,0.913434
520.0,0.912805
525.0,0.918058
530.0,0.9169
535.0,0.919856
540.0,0.921006
545.0,0.922776
550.0,0.924739
555.0,0.924701
560.0,0.925863
565.0,0.927709
570.0,0.927218
575.0,0.927448
580.0,0.928252
585.0,0.927586
590.0,0.927957
595.0,0.927454
600.0,0.926614
605.0,0.927373
610.0,0.92308
615.0,0.923992
620.0,0.920271
625.0,0.920321
630.0,0.91527
635.0,0.915113
640.0,0.911681
645.0,0.910859
650.0,0.907479
655.0,0.905541
660.0,0.903493
665.0,0.899776
670.0,0.897372
675.0,0.893958
680.0,0.892002
685.0,0.88707
690.0,0.886475
695.0,0.881114
700.0,0.879104
705.0,0.874917
710.0,0.872863
715.0,0.867822
720.0,0.865025
725.0,0.86088
730.0,0.855779
735.0,0.856044
740.0,0.850737
745.0,0.849476
750.0,0.844074
755.0,0.843857
760.0,0.840784
765.0,0.838354
770.0,0.83765
775.0,0.834128
780.0,0.833344
785.0,0.829391
790.0,0.829196
795.0,0.826428
800.0,0.826191
805.0,0.822704
810.0,0.822979
815.0,0.820293
820.0,0.821762
825.0,0.816009
830.0,0.815786
835.0,0.816609
840.0,0.815382
845.0,0.815794
850.0,0.812774
855.0,0.81262
860.0,0.815391
865.0,0.815352
870.0,0.812017
875.0,0.814964
880.0,0.813202
885.0,0.815613
890.0,0.811378
895.0,0.814501
900.0,0.810771
905.0,0.815719
910.0,0.815457
915.0,0.817155
920.0,0.816307
925.0,0.815688
930.0,0.817859
935.0,0.81787
940.0,0.819652
945.0,0.816863
950.0,0.820724
955.0,0.821039
960.0,0.822515
965.0,0.821271
970.0,0.824504
975.0,0.824754
980.0,0.824176
985.0,0.825263
990.0,0.828828
995.0,0.823708
1000.0,0.827613
1005.0,0.828882
1010.0,0.8298
1015.0,0.83084
1020.0,0.830732
1025.0,0.836108
1030.0,0.833742
1035.0,0.838111
1040.0,0.837205
1045.0,0.839769
1050.0,0.841545
1055.0,0.84011
1060.0,0.839326
1065.0,0.839285
1070.0,0.840302
1075.0,0.843691
1080.0,0.842759
1085.0,0.845803
1090.0,0.845509
1095.0,0.848009
1100.0,0.847265
1105.0,0.847279
1110.0,0.84797
1115.0,0.848224
1120.0,0.849863
1125.0,0.848522
1130.0,0.85091
1135.0,0.850528
1140.0,0.850773
1145.0,0.852393
1150.0,0.850965
1155.0,0.852774
1160.0,0.846705
1165.0,0.847049
1170.0,0.845569
1175.0,0.845564
1180.0,0.845666
1185.0,0.846239
1190.0,0.845769
1195.0,0.846209
1200.0,0.845914
1205.0,0.847295
1210.0,0.846039
1215.0,0.851023
1220.0,0.849428
1225.0,0.847911
1230.0,0.850554
1235.0,0.846987
1240.0,0.846184
1245.0,0.847081
1250.0,0.850732
1255.0,0.85019
1260.0,0.848296
1265.0,0.848562
1270.0,0.845865
1275.0,0.847135
1280.0,0.846868
1285.0,0.847233
1290.0,0.846775
1295.0,0.847597
1300.0,0.847554
1305.0,0.84431
1310.0,0.844894
1315.0,0.844549
1320.0,0.844607
1325.0,0.838765
1330.0,0.83965
1335.0,0.836456
1340.0,0.835387
1345.0,0.83263
1350.0,0.828136
1355.0,0.823895
1360.0,0.822536
1365.0,0.821447
1370.0,0.819834
1375.0,0.816765
1380.0,0.810728
1385.0,0.811592
1390.0,0.806134
1395.0,0.794568
1400.0,0.78644
1405.0,0.77606
1410.0,0.763559
1415.0,0.746605
1420.0,0.729888
1425.0,0.714914
1430.0,0.701346
1435.0,0.69245
1440.0,0.681699
1445.0,0.676659
1450.0,0.67455
1455.0,0.677664
1460.0,0.675533
1465.0,0.676465
1470.0,0.676219
1475.0,0.674513
1480.0,0.674051
1485.0,0.671133
1490.0,0.669049
1495.0,0.669284
1500.0,0.668492
1505.0,0.666554
1510.0,0.66617
1515.0,0.665123
1520.0,0.664481
1525.0,0.662243
1530.0,0.660021
1535.0,0.657615
1540.0,0.655023
1545.0,0.652975
1550.0,0.649645
1555.0,0.646625
1560.0,0.643728
1565.0,0.639741
1570.0,0.637689
1575.0,0.634045
1580.0,0.631339
1585.0,0.62915
1590.0,0.623618
1595.0,0.622056
1600.0,0.617959
1605.0,0.614646
1610.0,0.610837
1615.0,0.609437
1620.0,0.605616
1625.0,0.602432
1630.0,0.60084
1635.0,0.597491
1640.0,0.59618
1645.0,0.59169
1650.0,0.58953
1655.0,0.586877
1660.0,0.583266
1665.0,0.580935
1670.0,0.577213
1675.0,0.573804
1680.0,0.570753
1685.0,0.567404
1690.0,0.564057
1695.0,0.559866
1700.0,0.558816
1705.0,0.554936
1710.0,0.551171
1715.0,0.547882
1720.0,0.544776
1725.0,0.54288
1730.0,0.539094
1735.0,0.535975
1740.0,0.533077
1745.0,0.531084
1750.0,0.528172
1755.0,0.527097
1760.0,0.524653
1765.0,0.522778
1770.0,0.521018
1775.0,0.519086
1780.0,0.517663
1785.0,0.516768
1790.0,0.515336
1795.0,0.51428
1800.0,0.512858
1805.0,0.512207
1810.0,0.510812
1815.0,0.510242
1820.0,0.508914
1825.0,0.507279
1830.0,0.506405
1835.0,0.503893
1840.0,0.503482
1845.0,0.502891
1850.0,0.499108
1855.0,0.497916
1860.0,0.495334
1865.0,0.493452
1870.0,0.484703
1875.0,0.485634
1880.0,0.480319
1885.0,0.472102
1890.0,0.463312
1895.0,0.45369
1900.0,0.441197
1905.0,0.428775
1910.0,0.413812
1915.0,0.397549
1920.0,0.379822
1925.0,0.360637
1930.0,0.343175
1935.0,0.329574
1940.0,0.323925
1945.0,0.324532
1950.0,0.328662
1955.0,0.333097
1960.0,0.337283
1965.0,0.339548
1970.0,0.342618
1975.0,0.34454
1980.0,0.345927
1985.0,0.348176
1990.0,0.34966
1995.0,0.352063
2000.0,0.353503
2005.0,0.356482
2010.0,0.357656
2015.0,0.360794
2020.0,0.362686
2025.0,0.364203
2030.0,0.3655
2035.0,0.367137
2040.0,0.368118
2045.0,0.369064
2050.0,0.369689
2055.0,0.369869
2060.0,0.371138
2065.0,0.371882
2070.0,0.372955
2075.0,0.373668
2080.0,0.37552
2085.0,0.375481
2090.0,0.376482
2095.0,0.377353
2100.0,0.378223
2105.0,0.379422
2110.0,0.382068
2115.0,0.38227
2120.0,0.383565
2125.0,0.384438
2130.0,0.385303
2135.0,0.386428
2140.0,0.388526
2145.0,0.389836
2150.0,0.391505
2155.0,0.393968
2160.0,0.39562
2165.0,0.397621
2170.0,0.399191
2175.0,0.400923
2180.0,0.402481
2185.0,0.403344
2190.0,0.404742
2195.0,0.405347
2200.0,0.405048
2205.0,0.406652
2210.0,0.406803
2215.0,0.407777
2220.0,0.408511
2225.0,0.408933
2230.0,0.409991
2235.0,0.410509
2240.0,0.41137
2245.0,0.411631
2250.0,0.411662
2255.0,0.41236
2260.0,0.413194
2265.0,0.413511
2270.0,0.413098
2275.0,0.412814
2280.0,0.411185
2285.0,0.411881
2290.0,0.409764
2295.0,0.408863
2300.0,0.407395
2305.0,0.405815
2310.0,0.40327
2315.0,0.401225
2320.0,0.397423
2325.0,0.394612
2330.0,0.39092
2335.0,0.387784
2340.0,0.385025
2345.0,0.379419
2350.0,0.375355
2355.0,0.371351
2360.0,0.366458
2365.0,0.360514
2370.0,0.355511
2375.0,0.350064
2380.0,0.344472
2385.0,0.33825
2390.0,0.332994
2395.0,0.328337
2400.0,0.324017
2405.0,0.319517
2410.0,0.31659
2415.0,0.312354
2420.0,0.308185
2425.0,0.304424
2430.0,0.299287
2435.0,0.295195
2440.0,0.290398
2445.0,0.285651
2450.0,0.28095
2455.0,0.277046
2460.0,0.271908
2465.0,0.267735
2470.0,0.262883
2475.0,0.259418
2480.0,0.254463
2485.0,0.25101
2490.0,0.246601
2495.0,0.242761
2500.0,0.238231
2505.0,0.234741
2510.0,0.230806
2515.0,0.225964
2520.0,0.223129
2525.0,0.21917
2530.0,0.215805
2535.0,0.21236
2540.0,0.210556
2545.0,0.207044
2550.0,0.204159
2555.0,0.204329
2560.0,0.198359
2565.13,0.197909
2570.22,0.195434
2575.33,0.194524
2580.46,0.192308
2581.74,0.192029
2583.03,0.193002
2584.31,0.192258
2585.6,0.191621
2586.89,0.191049
2588.19,0.191793
2589.48,0.192007
2590.77,0.192587
2592.07,0.192274
2593.36,0.191127
2594.66,0.19058
2595.96,0.192205
2597.26,0.192433
2598.56,0.191318
2599.87,0.190458
2601.17,0.190216
2602.48,0.189733
2603.78,0.189562
2605.09,0.189357
2606.4,0.189361
2607.71,0.189954
2609.03,0.190133
2610.34,0.188848
2611.66,0.187232
2612.97,0.187438
2614.29,0.188535
2615.61,0.188055
2616.93,0.187772
2618.25,0.187959
2619.57,0.187
2620.9,0.186203
2622.22,0.186969
2623.55,0.186745
2624.88,0.186064
2626.21,0.1857
2627.54,0.185454
2628.87,0.184715
2630.21,0.183831
2631.54,0.183501
2632.88,0.182385
2634.21,0.181595
2635.55,0.181939
2636.89,0.182318
2638.24,0.182553
2639.58,0.181556
2640.92,0.180596
2642.27,0.17982
2643.62,0.179335
2644.97,0.179111
2646.32,0.179026
2647.67,0.178829
2649.02,0.178275
2650.38,0.177897
2651.73,0.178004
2653.09,0.176872
2654.45,0.176496
2655.81,0.175815
2657.17,0.174517
2658.53,0.174128
2659.89,0.174061
2661.26,0.174206
2662.63,0.17438
2664.0,0.173037
2665.36,0.171817
2666.74,0.170912
2668.11,0.170746
2669.48,0.169764
2670.86,0.168861
2672.23,0.16874
2673.61,0.167695
2674.99,0.166319
2676.37,0.16523
2677.76,0.16479
2679.14,0.163347
2680.52,0.161926
2681.91,0.16154
2683.3,0.160435
2684.69,0.159132
2686.08,0.157475
2687.47,0.156466
2688.87,0.155863
2690.26,0.154303
2691.66,0.152358
2693.06,0.1508
2694.46,0.149388
2695.86,0.148339
2697.26,0.147445
2698.66,0.14618
2700.07,0.144338
2701.48,0.142551
2702.89,0.140392
2704.3,0.138761
2705.71,0.137198
2707.12,0.135821
2708.53,0.134
2709.95,0.132463
2711.37,0.130414
2712.79,0.127948
2714.21,0.125702
2715.63,0.123735
2717.05,0.121783
2718.48,0.119177
2719.9,0.116053
2721.33,0.114171
2722.76,0.112602
2724.19,0.110558
2725.62,0.10832
2727.06,0.105894
2728.49,0.10291
2729.93,0.100748
2731.37,0.098542
2732.81,0.095728
2734.25,0.092737
2735.69,0.089915
2737.14,0.087418
2738.58,0.085047
2740.03,0.082325
2741.48,0.08008
2742.93,0.077894
2744.38,0.075938
2745.83,0.073741
2747.29,0.071284
2748.75,0.068635
2750.2,0.065542
2751.66,0.063713
2753.13,0.062471
2754.59,0.060671
2756.05,0.059526
2757.52,0.058148
2758.99,0.05644
2760.46,0.053739
2761.93,0.051446
2763.4,0.05036
2764.87,0.049527
2766.35,0.0478
2767.82,0.045932
2769.3,0.045499
2770.78,0.04487
2772.26,0.04279
2773.75,0.041391
2775.23,0.040825
2776.72,0.03949
2778.21,0.037899
2779.7,0.037503
2781.19,0.036499
2782.68,0.035736
2784.18,0.035718
2785.67,0.035308
2787.17,0.033987
2788.67,0.032704
2790.17,0.032076
2791.67,0.031906
2793.18,0.031002
2794.68,0.030217
2796.19,0.03031
2797.7,0.029848
2799.21,0.028716
2800.72,0.028949
2802.24,0.028779
2803.75,0.028802
2805.27,0.028507
2806.79,0.027854
2808.31,0.027792
2809.83,0.027583
2811.35,0.026972
2812.88,0.026154
2814.41,0.025856
2815.93,0.025827
2817.46,0.025251
2819.0,0.025282
2820.53,0.025161
2822.07,0.024534
2823.6,0.024335
2825.14,0.023993
2826.68,0.023521
2828.22,0.023632
2829.77,0.023717
2831.31,0.023801
2832.86,0.023546
2834.41,0.023148
2835.96,0.022655
2837.51,0.022212
2839.07,0.022019
2840.62,0.021909
2842.18,0.021676
2843.74,0.021271
2845.3,0.021187
2846.86,0.020808
2848.43,0.020172
2849.99,0.020613
2851.56,0.020779
2853.13,0.019887
2854.7,0.01953
2856.27,0.019762
2857.85,0.020127
2859.42,0.01991
2861.0,0.019231
2862.58,0.019032
2864.16,0.018723
2865.75,0.018415
2867.33,0.018556
2868.92,0.018512
2870.51,0.018029
2872.1,0.017826
2873.69,0.018118
2875.28,0.018112
2876.88,0.018165
2878.48,0.01754
2880.07,0.016976
2881.68,0.0169
2883.28,0.016987
2884.88,0.016689
2886.49,0.01622
2888.1,0.016067
2889.71,0.015947
2891.32,0.01555
2892.93,0.015718
2894.55,0.015974
2896.16,0.015657
2897.78,0.015647
2899.4,0.015811
2901.03,0.015458
2902.65,0.014891
2904.28,0.014771
2905.91,0.01452
2907.54,0.01401
2909.17,0.013846
2910.8,0.014587
2912.44,0.014906
2914.07,0.014736
2915.71,0.014224
2917.35,0.013966
2918.99,0.013869
2920.64,0.013544
2922.29,0.013881
2923.93,0.013978
2925.58,0.014246
2927.24,0.014082
2928.89,0.01393
2930.55,0.014186
2932.2,0.014122
2933.86,0.013924
2935.52,0.01335
2937.19,0.013186
2938.85,0.013431
2940.52,0.013316
2942.19,0.012871
2943.86,0.012884
2945.53,0.012718
2947.21,0.012753
2948.88,0.012914
2950.56,0.012989
2952.24,0.012068
2953.92,0.011784
2955.61,0.012444
2957.29,0.012795
2958.98,0.012697
2960.67,0.012525
2962.36,0.012738
2964.06,0.013119
2965.75,0.012794
2967.45,0.011637
2969.15,0.01175
2970.85,0.012439
2972.55,0.012377
2974.26,0.012064
2975.97,0.011898
2977.68,0.012198
2979.39,0.012815
2981.1,0.01254
2982.82,0.011987
2984.53,0.012006
2986.25,0.011994
2987.97,0.011997
2989.7,0.012085
2991.42,0.012054
2993.15,0.012236
2994.88,0.012505
2996.61,0.012856
2998.34,0.012587
3000.08,0.012093
3001.82,0.011849
3003.55,0.012141
3005.3,0.012591
3007.04,0.012376
3008.78,0.012711
3010.53,0.012899
3012.28,0.012826
3014.03,0.012622
3015.79,0.011962
3017.54,0.011523
3019.3,0.011949
3021.06,0.012765
3022.82,0.012812
3024.58,0.012386
3026.35,0.011886
3028.12,0.011677
3029.89,0.012092
3031.66,0.012833
3033.43,0.012956
3035.21,0.012735
3036.99,0.012634
3038.77,0.012496
3040.55,0.012051
3042.33,0.011912
3044.12,0.012099
3045.91,0.011946
3047.7,0.012207
3049.49,0.012785
3051.29,0.012909
3053.08,0.012963
3054.88,0.012788
3056.68,0.012893
3058.49,0.013263
3060.29,0.012971
3062.1,0.01252
3063.91,0.012318
3065.72,0.012561
3067.54,0.012526
3069.35,0.012799
3071.17,0.013274
3072.99,0.013381
3074.81,0.012949
3076.64,0.012479
3078.47,0.012569
3080.29,0.01251
3082.13,0.012438
3083.96,0.012658
3085.79,0.012999
3087.63,0.012911
3089.47,0.012405
3091.31,0.012383
3093.16,0.012487
3095.01,0.012546
3096.85,0.013
3098.71,0.013013
3100.56,0.013188
3102.41,0.013186
3104.27,0.012984
3106.13,0.013285
3107.99,0.013098
3109.86,0.01265
3111.73,0.012589
3113.59,0.012728
3115.47,0.012651
3117.34,0.012792
3119.21,0.01306
3121.09,0.013375
3122.97,0.013562
3124.86,0.013129
3126.74,0.012974
3128.63,0.013301
3130.52,0.013173
3132.41,0.013296
3134.3,0.013506
3136.2,0.013132
3138.1,0.013278
3140.0,0.013803
3141.9,0.013977
3143.81,0.013983
3145.71,0.014143
3147.62,0.014374
3149.54,0.014474
3151.45,0.014412
3153.37,0.014597
3155.29,0.014687
3157.21,0.014969
3159.13,0.0153
3161.06,0.014678
3162.99,0.014441
3164.92,0.014422
3166.85,0.01458
3168.79,0.015141
3170.72,0.015423
3172.67,0.015416
3174.61,0.015692
3176.55,0.015675
3178.5,0.015555
3180.45,0.015478
3182.4,0.015698
3184.36,0.015815
3186.32,0.015989
3188.27,0.016195
3190.24,0.016116
3192.2,0.015997
3194.17,0.016195
3196.14,0.016296
3198.11,0.016639
3200.08,0.016835
3202.06,0.016798
3204.04,0.01694
3206.02,0.017337
3208.0,0.017322
3209.99,0.017209
3211.98,0.017433
3213.97,0.017225
3215.96,0.017005
3217.96,0.017164
3219.96,0.016972
3221.96,0.017345
3223.96,0.018087
3225.97,0.018363
3227.98,0.018059
3229.99,0.017962
3232.0,0.01788
3234.02,0.017862
3236.04,0.018024
3238.06,0.018352
3240.08,0.018562
3242.11,0.01861
3244.14,0.018739
3246.17,0.018841
3248.2,0.018695
3250.24,0.018691
3252.28,0.018949
3254.32,0.018952
3256.37,0.01875
3258.41,0.018687
3260.46,0.018451
3262.51,0.018439
3264.57,0.018605
3266.63,0.018707
3268.69,0.019061
3270.75,0.019268
3272.81,0.019008
3274.88,0.019107
3276.95,0.01954
3279.02,0.019719
3281.1,0.019255
3283.18,0.019113
3285.26,0.019787
3287.34,0.02032
3289.43,0.020352
3291.51,0.020484
3293.61,0.020274
3295.7,0.019996
3297.8,0.020323
3299.9,0.020111
3302.0,0.019778
3304.1,0.020154
3306.21,0.020663
3308.32,0.020831
3310.43,0.020758
3312.55,0.020695
3314.66,0.020699
3316.79,0.020787
3318.91,0.020846
3321.03,0.021056
3323.16,0.021011
3325.29,0.021095
3327.43,0.021211
3329.57,0.021003
3331.71,0.021235
3333.85,0.02187
3335.99,0.021796
3338.14,0.021214
3340.29,0.02165
3342.45,0.021934
3344.6,0.021842
3346.76,0.022021
3348.92,0.022435
3351.09,0.0224
3353.26,0.022216
3355.43,0.022549
3357.6,0.022886
3359.78,0.022763
3361.96,0.022824
3364.14,0.022733
3366.32,0.022507
3368.51,0.023022
3370.7,0.023532
3372.89,0.023701
3375.09,0.023571
3377.29,0.02344
3379.49,0.023425
3381.69,0.023251
3383.9,0.023264
3386.11,0.023554
3388.32,0.023791
3390.54,0.024028
3392.76,0.024091
3394.98,0.024529
3397.21,0.024877
3399.43,0.024449
3401.66,0.024463
3403.9,0.024687
3406.13,0.024719
3408.37,0.025144
3410.61,0.025486
3412.86,0.025644
3415.11,0.025961
3417.36,0.025909
3419.61,0.025661
3421.87,0.025796
3424.13,0.026121
3426.39,0.026059
3428.66,0.025921
3430.93,0.026202
3433.2,0.026437
3435.48,0.026439
3437.76,0.026667
3440.04,0.027007
3442.32,0.027083
3444.61,0.027086
3446.9,0.027393
3449.19,0.027656
3451.49,0.027394
3453.79,0.027461
3456.09,0.027827
3458.4,0.027925
3460.7,0.028055
3463.02,0.028058
3465.33,0.028001
3467.65,0.028499
3469.97,0.02875
3472.29,0.028532
3474.62,0.028672
3476.95,0.028986
3479.29,0.029084
3481.62,0.028998
3483.96,0.029162
3486.3,0.029413
3488.65,0.029502
3491.0,0.029974
3493.35,0.030488
3495.71,0.030377
3498.07,0.029998
3500.43,0.030094
3502.79,0.0304
3505.16,0.030666
3507.53,0.030884
3509.91,0.03104
3512.29,0.03106
3514.67,0.031215
3517.05,0.031472
3519.44,0.031746
3521.83,0.03169
3524.23,0.031273
3526.62,0.031239
3529.02,0.031834
3531.43,0.03204
3533.83,0.032279
3536.24,0.032587
3538.66,0.032775
3541.08,0.032892
3543.5,0.032874
3545.92,0.032805
3548.35,0.03308
3550.78,0.033461
3553.21,0.033836
3555.65,0.033885
3558.09,0.034018
3560.53,0.033954
3562.98,0.034348
3565.43,0.034619
3567.88,0.034887
3570.34,0.035093
3572.8,0.035181
3575.27,0.035157
3577.73,0.035242
3580.2,0.035733
3582.68,0.035926
3585.16,0.035952
3587.64,0.036205
3590.12,0.036443
3592.61,0.036546
3595.1,0.036696
3597.6,0.036976
3600.09,0.037228
3602.6,0.037602
3605.1,0.037829
3607.61,0.038079
3610.12,0.038179
3612.64,0.038409
3615.16,0.038259
3617.68,0.037864
3620.21,0.038078
3622.74,0.038812
3625.27,0.03919
3627.81,0.039309
3630.35,0.039483
3632.89,0.039812
3635.44,0.039852
3637.99,0.039672
3640.54,0.039926
3643.1,0.040316
3645.66,0.040434
3648.23,0.040689
3650.8,0.041055
3653.37,0.041366
3655.95,0.041586
3658.53,0.041675
3661.11,0.041658
3663.7,0.04184
3666.29,0.042264
3668.89,0.042808
3671.48,0.042894
3674.09,0.042719
3676.69,0.042552
3679.3,0.04283
3681.91,0.043373
3684.53,0.043537
3687.15,0.043554
3689.78,0.043619
3692.4,0.043949
3695.04,0.044546
3697.67,0.044784
3700.31,0.045021
3702.95,0.045109
3705.6,0.045368
3708.25,0.045562
3710.91,0.045663
3713.56,0.045879
3716.23,0.04611
3718.89,0.04623
3721.56,0.046518
3724.23,0.046636
3726.91,0.046701
3729.59,0.046735
3732.28,0.046836
3734.97,0.04713
3737.66,0.047397
3740.36,0.047504
3743.06,0.04757
3745.76,0.04783
3748.47,0.048462
3751.18,0.048752
3753.9,0.048601
3756.62,0.048425
3759.34,0.048478
3762.07,0.048789
3764.8,0.04903
3767.54,0.049212
3770.28,0.049508
3773.02,0.04983
3775.77,0.050045
3778.52,0.050024
3781.28,0.050155
3784.04,0.050589
3786.8,0.050557
3789.57,0.050359
3792.34,0.050301
3795.12,0.050517
3797.9,0.051087
3800.69,0.05138
3803.47,0.051464
3806.27,0.050943
3809.06,0.050918
3811.86,0.051379
3814.67,0.051779
3817.48,0.051922
3820.29,0.05169
3823.11,0.051354
3825.93,0.051558
3828.76,0.051968
3831.59,0.052276
3834.42,0.052309
3837.26,0.052367
3840.1,0.05247
3842.95,0.05244
3845.8,0.05236
3848.65,0.052544
3851.51,0.052606
3854.38,0.0524
3857.24,0.052508
3860.12,0.052616
3862.99,0.052401
3865.87,0.05237
3868.76,0.052626
3871.65,0.052775
3874.54,0.052601
3877.44,0.05262
3880.34,0.052993
3883.25,0.053208
3886.16,0.052945
3889.07,0.052957
3891.99,0.052969
