Database of Origin,University of Winnipeg Spectrophotometer Facility
Sample Description,9.2. MAGNETITE: Merged RELAB & Nicole / Merged at 2.5 um / different viewing geometry
Date Added,2016-07-15 22:03:00.484300

Data ID,RPN_MAG_21          
Sample ID,MAG121
Mineral Name,Magnetite
Grain Size,<45
Viewing Geometry,30 / 0 | 30
Resolution,1.2-129
Material Class,Magnetite

Wavelength
305.0,0.047652
310.0,0.050127
315.0,0.049976
320.0,0.051082
325.0,0.051356
330.0,0.051021
335.0,0.051806
340.0,0.052249
345.0,0.051399
350.0,0.051903
355.0,0.052006
360.0,0.052256
365.0,0.052423
370.0,0.052291
375.0,0.052539
380.0,0.052185
385.0,0.052407
390.0,0.052141
395.0,0.052122
400.0,0.052172
405.0,0.0521
410.0,0.052187
415.0,0.051985
420.0,0.051842
425.0,0.0514
430.0,0.051205
435.0,0.051065
440.0,0.050717
445.0,0.050446
450.0,0.049881
455.0,0.049882
460.0,0.049779
465.0,0.049674
470.0,0.049613
475.0,0.049629
480.0,0.049572
485.0,0.049626
490.0,0.049547
495.0,0.049423
500.0,0.049389
505.0,0.049323
510.0,0.04924
515.0,0.049196
520.0,0.049328
525.0,0.049293
530.0,0.049535
535.0,0.049442
540.0,0.049672
545.0,0.04979
550.0,0.049883
555.0,0.050036
560.0,0.050165
565.0,0.050229
570.0,0.050332
575.0,0.050489
580.0,0.050521
585.0,0.050567
590.0,0.050713
595.0,0.050776
600.0,0.050762
605.0,0.050926
610.0,0.051109
615.0,0.051325
620.0,0.051491
625.0,0.051612
630.0,0.051743
635.0,0.051875
640.0,0.051826
645.0,0.051748
650.0,0.051682
655.0,0.051621
660.0,0.051451
665.0,0.051422
670.0,0.051283
675.0,0.051114
680.0,0.050954
685.0,0.050844
690.0,0.050717
695.0,0.050541
700.0,0.050346
705.0,0.050229
710.0,0.050102
715.0,0.04993
720.0,0.04995
725.0,0.049708
730.0,0.049503
735.0,0.049256
740.0,0.049028
745.0,0.048915
750.0,0.048753
755.0,0.048553
760.0,0.048431
765.0,0.048286
770.0,0.048074
775.0,0.047704
780.0,0.047673
785.0,0.047203
790.0,0.046878
795.0,0.046814
800.0,0.046761
805.0,0.046062
810.0,0.045902
815.0,0.045757
820.0,0.045809
825.0,0.045194
830.0,0.045478
835.0,0.044843
840.0,0.044488
845.0,0.04468
850.0,0.043939
855.0,0.043843
860.0,0.043614
865.0,0.043912
870.0,0.043001
875.0,0.042698
880.0,0.04233
885.0,0.042264
890.0,0.041795
895.0,0.041971
900.0,0.041577
905.0,0.041551
910.0,0.041115
915.0,0.041036
920.0,0.040699
925.0,0.040609
930.0,0.040262
935.0,0.039977
940.0,0.040153
945.0,0.039816
950.0,0.039689
955.0,0.039796
960.0,0.03972
965.0,0.03947
970.0,0.039173
975.0,0.039175
980.0,0.038978
985.0,0.038785
990.0,0.038937
995.0,0.038881
1000.0,0.038648
1005.0,0.038553
1010.0,0.038437
1015.0,0.038749
1020.0,0.03854
1025.0,0.038624
1030.0,0.038346
1035.0,0.038201
1040.0,0.038366
1045.0,0.038186
1050.0,0.038288
1055.0,0.038344
1060.0,0.038159
1065.0,0.038076
1070.0,0.038268
1075.0,0.03819
1080.0,0.038369
1085.0,0.038147
1090.0,0.038325
1095.0,0.03834
1100.0,0.038291
1105.0,0.03853
1110.0,0.038376
1115.0,0.038442
1120.0,0.038369
1125.0,0.038565
1130.0,0.038684
1135.0,0.038713
1140.0,0.03872
1145.0,0.038852
1150.0,0.038831
1155.0,0.038825
1160.0,0.03905
1165.0,0.039173
1170.0,0.039309
1175.0,0.039433
1180.0,0.039556
1185.0,0.039538
1190.0,0.039826
1195.0,0.040036
1200.0,0.040355
1205.0,0.040213
1210.0,0.040504
1215.0,0.040467
1220.0,0.040622
1225.0,0.040712
1230.0,0.040702
1235.0,0.040927
1240.0,0.041015
1245.0,0.041208
1250.0,0.04137
1255.0,0.041207
1260.0,0.041294
1265.0,0.04151
1270.0,0.041629
1275.0,0.041745
1280.0,0.041998
1285.0,0.042048
1290.0,0.042102
1295.0,0.042354
1300.0,0.042556
1305.0,0.042682
1310.0,0.042732
1315.0,0.042902
1320.0,0.04308
1325.0,0.043319
1330.0,0.043369
1335.0,0.04354
1340.0,0.043694
1345.0,0.043676
1350.0,0.044093
1355.0,0.04433
1360.0,0.044983
1365.0,0.044614
1370.0,0.045164
1375.0,0.04522
1380.0,0.04554
1385.0,0.045467
1390.0,0.045721
1395.0,0.045785
1400.0,0.045971
1405.0,0.046059
1410.0,0.046242
1415.0,0.046656
1420.0,0.046811
1425.0,0.047118
1430.0,0.046874
1435.0,0.047046
1440.0,0.047146
1445.0,0.047359
1450.0,0.047622
1455.0,0.04766
1460.0,0.047947
1465.0,0.048238
1470.0,0.048125
1475.0,0.048287
1480.0,0.048495
1485.0,0.048692
1490.0,0.048773
1495.0,0.048775
1500.0,0.049034
1505.0,0.049335
1510.0,0.049271
1515.0,0.049591
1520.0,0.049859
1525.0,0.04996
1530.0,0.050052
1535.0,0.050128
1540.0,0.050583
1545.0,0.050617
1550.0,0.050701
1555.0,0.050992
1560.0,0.051044
1565.0,0.051215
1570.0,0.051128
1575.0,0.051237
1580.0,0.051341
1585.0,0.051773
1590.0,0.051665
1595.0,0.052
1600.0,0.052261
1605.0,0.052465
1610.0,0.052518
1615.0,0.052448
1620.0,0.052532
1625.0,0.052822
1630.0,0.053516
1635.0,0.05301
1640.0,0.053476
1645.0,0.053467
1650.0,0.053325
1655.0,0.053827
1660.0,0.053725
1665.0,0.054094
1670.0,0.053928
1675.0,0.054056
1680.0,0.054448
1685.0,0.054737
1690.0,0.054403
1695.0,0.054922
1700.0,0.055077
1705.0,0.055151
1710.0,0.055287
1715.0,0.055264
1720.0,0.055448
1725.0,0.055486
1730.0,0.055685
1735.0,0.055772
1740.0,0.055801
1745.0,0.055901
1750.0,0.056088
1755.0,0.056018
1760.0,0.056206
1765.0,0.056294
1770.0,0.056531
1775.0,0.056648
1780.0,0.056937
1785.0,0.056854
1790.0,0.056955
1795.0,0.057137
1800.0,0.057302
1805.0,0.057499
1810.0,0.057456
1815.0,0.057584
1820.0,0.057638
1825.0,0.057834
1830.0,0.057997
1835.0,0.058096
1840.0,0.057957
1845.0,0.058092
1850.0,0.058235
1855.0,0.058431
1860.0,0.058343
1865.0,0.058607
1870.0,0.058498
1875.0,0.058667
1880.0,0.058788
1885.0,0.059189
1890.0,0.059278
1895.0,0.059291
1900.0,0.059298
1905.0,0.059376
1910.0,0.059374
1915.0,0.059434
1920.0,0.059659
1925.0,0.059629
1930.0,0.059945
1935.0,0.059927
1940.0,0.060151
1945.0,0.060012
1950.0,0.060151
1955.0,0.060197
1960.0,0.060499
1965.0,0.060568
1970.0,0.060728
1975.0,0.060647
1980.0,0.060876
1985.0,0.061038
1990.0,0.060913
1995.0,0.060977
2000.0,0.061213
2005.0,0.061422
2010.0,0.061498
2015.0,0.061522
2020.0,0.061462
2025.0,0.061788
2030.0,0.061846
2035.0,0.061718
2040.0,0.062085
2045.0,0.061941
2050.0,0.061994
2055.0,0.062206
2060.0,0.06216
2065.0,0.062146
2070.0,0.062327
2075.0,0.062169
2080.0,0.062505
2085.0,0.062601
2090.0,0.062577
2095.0,0.062785
2100.0,0.062725
2105.0,0.062795
2110.0,0.063077
2115.0,0.062936
2120.0,0.062863
2125.0,0.063306
2130.0,0.063239
2135.0,0.063163
2140.0,0.063313
2145.0,0.063214
2150.0,0.063272
2155.0,0.063497
2160.0,0.063503
2165.0,0.063442
2170.0,0.063444
2175.0,0.063419
2180.0,0.063618
2185.0,0.063634
2190.0,0.063588
2195.0,0.063646
2200.0,0.063923
2205.0,0.063874
2210.0,0.064166
2215.0,0.064076
2220.0,0.064042
2225.0,0.064155
2230.0,0.064024
2235.0,0.064067
2240.0,0.064569
2245.0,0.064487
2250.0,0.064359
2255.0,0.064343
2260.0,0.064663
2265.0,0.064553
2270.0,0.064895
2275.0,0.064847
2280.0,0.065035
2285.0,0.064953
2290.0,0.065078
2295.0,0.06547
2300.0,0.065187
2305.0,0.065518
2310.0,0.065554
2315.0,0.065767
2320.0,0.065797
2325.0,0.065733
2330.0,0.065702
2335.0,0.065837
2340.0,0.065889
2345.0,0.065901
2350.0,0.066057
2355.0,0.0664
2360.0,0.0662
2365.0,0.066241
2370.0,0.066446
2375.0,0.06649
2380.0,0.066444
2385.0,0.066306
2390.0,0.06669
2395.0,0.066604
2400.0,0.066776
2405.0,0.0668
2410.0,0.066881
2415.0,0.067037
2420.0,0.066829
2425.0,0.066744
2430.0,0.066984
2435.0,0.067051
2440.0,0.067117
2445.0,0.067043
2450.0,0.067009
2455.0,0.067086
2460.0,0.067228
2465.0,0.067221
2470.0,0.067321
2475.0,0.067162
2480.0,0.067229
2485.0,0.067156
2490.0,0.06713
2495.0,0.06745
2500.0,0.067711
2502.0,0.06753
2503.2,0.067182
2504.41,0.067276
2505.62,0.067694
2506.83,0.067848
2508.05,0.067839
2509.26,0.067476
2510.48,0.067307
2511.69,0.067519
2512.91,0.067606
2514.13,0.067594
2515.35,0.06757
2516.57,0.067214
2517.79,0.067055
2519.02,0.067454
2520.24,0.067639
2521.47,0.067595
2522.69,0.067422
2523.92,0.067198
2525.15,0.067128
2526.38,0.067017
2527.61,0.067338
2528.85,0.067523
2530.08,0.0673
2531.32,0.06743
2532.55,0.067634
2533.79,0.067498
2535.03,0.067365
2536.27,0.067439
2537.51,0.067439
2538.75,0.06723
2540.0,0.067432
2541.24,0.067505
2542.49,0.067299
2543.74,0.067307
2544.99,0.067469
2546.24,0.067561
2547.49,0.067458
2548.74,0.067253
2549.99,0.06713
2551.25,0.06727
2552.5,0.067384
2553.76,0.067407
2555.02,0.067277
2556.28,0.067237
2557.54,0.067435
2558.8,0.067341
2560.07,0.067145
2561.33,0.06712
2562.6,0.067101
2563.86,0.066965
2565.13,0.066992
2566.4,0.067132
2567.67,0.067208
2568.95,0.067239
2570.22,0.067297
2571.5,0.067263
2572.77,0.06726
2574.05,0.067373
2575.33,0.067438
2576.61,0.067305
2577.89,0.067172
2579.17,0.067292
2580.46,0.067355
2581.74,0.067104
2583.03,0.067051
2584.31,0.067179
2585.6,0.067269
2586.89,0.067165
2588.19,0.06715
2589.48,0.067029
2590.77,0.067147
2592.07,0.067292
2593.36,0.067504
2594.66,0.067545
2595.96,0.067449
2597.26,0.067501
2598.56,0.067334
2599.87,0.067179
2601.17,0.067167
2602.48,0.067242
2603.78,0.067231
2605.09,0.067376
2606.4,0.067389
2607.71,0.067235
2609.03,0.067113
2610.34,0.067123
2611.66,0.06716
2612.97,0.067303
2614.29,0.067359
2615.61,0.06711
2616.93,0.066984
2618.25,0.067406
2619.57,0.067523
2620.9,0.067307
2622.22,0.067304
2623.55,0.06694
2624.88,0.066844
2626.21,0.06706
2627.54,0.067131
2628.87,0.066937
2630.21,0.066977
2631.54,0.067157
2632.88,0.067229
2634.21,0.067152
2635.55,0.067147
2636.89,0.067203
2638.24,0.067264
2639.58,0.067048
2640.92,0.067122
2642.27,0.067372
2643.62,0.067199
2644.97,0.067039
2646.32,0.067017
2647.67,0.067147
2649.02,0.067235
2650.38,0.067065
2651.73,0.066899
2653.09,0.066833
2654.45,0.066872
2655.81,0.066806
2657.17,0.066846
2658.53,0.06724
2659.89,0.06723
2661.26,0.067034
2662.63,0.067137
2664.0,0.067109
2665.36,0.066941
2666.74,0.067184
2668.11,0.067281
2669.48,0.067215
2670.86,0.067109
2672.23,0.067254
2673.61,0.067193
2674.99,0.067347
2676.37,0.067185
2677.76,0.066813
2679.14,0.067181
2680.52,0.067384
2681.91,0.06725
2683.3,0.066987
2684.69,0.066708
2686.08,0.066686
2687.47,0.066824
2688.87,0.067111
2690.26,0.067165
2691.66,0.067063
2693.06,0.067006
2694.46,0.06709
2695.86,0.067056
2697.26,0.066704
2698.66,0.066541
2700.07,0.0667
2701.48,0.066911
2702.89,0.066862
2704.3,0.066784
2705.71,0.066659
2707.12,0.066614
2708.53,0.066491
2709.95,0.066395
2711.37,0.066404
2712.79,0.066513
2714.21,0.066491
2715.63,0.066202
2717.05,0.066031
2718.48,0.066138
2719.9,0.066306
2721.33,0.066609
2722.76,0.066787
2724.19,0.066595
2725.62,0.066688
2727.06,0.066717
2728.49,0.066484
2729.93,0.066345
2731.37,0.066211
2732.81,0.06607
2734.25,0.066283
2735.69,0.066341
2737.14,0.066283
2738.58,0.066318
2740.03,0.066153
2741.48,0.06619
2742.93,0.066457
2744.38,0.066404
2745.83,0.066146
2747.29,0.066239
2748.75,0.066358
2750.2,0.066397
2751.66,0.06627
2753.13,0.066055
2754.59,0.0663
2756.05,0.066517
2757.52,0.066551
2758.99,0.066463
2760.46,0.066327
2761.93,0.066192
2763.4,0.066278
2764.87,0.066417
2766.35,0.066358
2767.82,0.066198
2769.3,0.066367
2770.78,0.066407
2772.26,0.06639
2773.75,0.066417
2775.23,0.066392
2776.72,0.066402
2778.21,0.066274
2779.7,0.066295
2781.19,0.066379
2782.68,0.066228
2784.18,0.06601
2785.67,0.066113
2787.17,0.066253
2788.67,0.066286
2790.17,0.066366
2791.67,0.066412
2793.18,0.066361
2794.68,0.066388
2796.19,0.06632
2797.7,0.066147
2799.21,0.066016
2800.72,0.065991
2802.24,0.066073
2803.75,0.066196
2805.27,0.06632
2806.79,0.066378
2808.31,0.066307
2809.83,0.066261
2811.35,0.066238
2812.88,0.066308
2814.41,0.066163
2815.93,0.066256
2817.46,0.066331
2819.0,0.066143
2820.53,0.065797
2822.07,0.065964
2823.6,0.066171
2825.14,0.066179
2826.68,0.066147
2828.22,0.06614
2829.77,0.065951
2831.31,0.065867
2832.86,0.066005
2834.41,0.06629
2835.96,0.06611
2837.51,0.06603
2839.07,0.066195
2840.62,0.066341
2842.18,0.06626
2843.74,0.066183
2845.3,0.06637
2846.86,0.066409
2848.43,0.066373
2849.99,0.066516
2851.56,0.066554
2853.13,0.066305
2854.7,0.066158
2856.27,0.066174
2857.85,0.066199
2859.42,0.066269
2861.0,0.066244
2862.58,0.066225
2864.16,0.066322
2865.75,0.066385
2867.33,0.066266
2868.92,0.066106
2870.51,0.066082
2872.1,0.06625
2873.69,0.066393
2875.28,0.066336
2876.88,0.066259
2878.48,0.066293
2880.07,0.066269
2881.68,0.066193
2883.28,0.066022
2884.88,0.065995
2886.49,0.066282
2888.1,0.06639
2889.71,0.066306
2891.32,0.066234
2892.93,0.06639
2894.55,0.066465
2896.16,0.066294
2897.78,0.066434
2899.4,0.066565
2901.03,0.066564
2902.65,0.066497
2904.28,0.066296
2905.91,0.066246
2907.54,0.066334
2909.17,0.066204
2910.8,0.066136
2912.44,0.066208
2914.07,0.066373
2915.71,0.066609
2917.35,0.066507
2918.99,0.066361
2920.64,0.066368
2922.29,0.066306
2923.93,0.066281
2925.58,0.066484
2927.24,0.066643
2928.89,0.066585
2930.55,0.066389
2932.2,0.066433
2933.86,0.066565
2935.52,0.066484
2937.19,0.066502
2938.85,0.066441
2940.52,0.066321
2942.19,0.066138
2943.86,0.066356
2945.53,0.066587
2947.21,0.066496
2948.88,0.066302
2950.56,0.066307
2952.24,0.066474
2953.92,0.066654
2955.61,0.066582
2957.29,0.066399
2958.98,0.066388
2960.67,0.066484
2962.36,0.066605
2964.06,0.066676
2965.75,0.066638
2967.45,0.066576
2969.15,0.066558
2970.85,0.066542
2972.55,0.066666
2974.26,0.066659
2975.97,0.066423
2977.68,0.066317
2979.39,0.066408
2981.1,0.066591
2982.82,0.066582
2984.53,0.066579
2986.25,0.066557
2987.97,0.066624
2989.7,0.066594
2991.42,0.066559
2993.15,0.066595
2994.88,0.06661
2996.61,0.066688
2998.34,0.066672
3000.08,0.066569
3001.82,0.066627
3003.55,0.066735
3005.3,0.06677
3007.04,0.066723
3008.78,0.066681
3010.53,0.06661
3012.28,0.066675
3014.03,0.066745
3015.79,0.066682
3017.54,0.066711
3019.3,0.066858
3021.06,0.066831
3022.82,0.066626
3024.58,0.066656
3026.35,0.066732
3028.12,0.0667
3029.89,0.066734
3031.66,0.066794
3033.43,0.066826
3035.21,0.066801
3036.99,0.066811
3038.77,0.06686
3040.55,0.066986
3042.33,0.067088
3044.12,0.066982
3045.91,0.066816
3047.7,0.066745
3049.49,0.066792
3051.29,0.06686
3053.08,0.066768
3054.88,0.066721
3056.68,0.066825
3058.49,0.066925
3060.29,0.066964
3062.1,0.066936
3063.91,0.067024
3065.72,0.0671
3067.54,0.066992
3069.35,0.06689
3071.17,0.066892
3072.99,0.066873
3074.81,0.066914
3076.64,0.066928
3078.47,0.066962
3080.29,0.066994
3082.13,0.067065
3083.96,0.06712
3085.79,0.067124
3087.63,0.067133
3089.47,0.067127
3091.31,0.067119
3093.16,0.067085
3095.01,0.067143
3096.85,0.06723
3098.71,0.067191
3100.56,0.067149
3102.41,0.067105
3104.27,0.067105
3106.13,0.067049
3107.99,0.06702
3109.86,0.067027
3111.73,0.067009
3113.59,0.067063
3115.47,0.067129
3117.34,0.067098
3119.21,0.067022
3121.09,0.067023
3122.97,0.067163
3124.86,0.06717
3126.74,0.06708
3128.63,0.067083
3130.52,0.0671
3132.41,0.06706
3134.3,0.06721
3136.2,0.067342
3138.1,0.067235
3140.0,0.067141
3141.9,0.067067
3143.81,0.066988
3145.71,0.067059
3147.62,0.067156
3149.54,0.067199
3151.45,0.067167
3153.37,0.067235
3155.29,0.067259
3157.21,0.067183
3159.13,0.067289
3161.06,0.067249
3162.99,0.067285
3164.92,0.067309
3166.85,0.067253
3168.79,0.067248
3170.72,0.067261
3172.67,0.067277
3174.61,0.067336
3176.55,0.067377
3178.5,0.067445
3180.45,0.067453
3182.4,0.067488
3184.36,0.067535
3186.32,0.067415
3188.27,0.067462
3190.24,0.067526
3192.2,0.067478
3194.17,0.067534
3196.14,0.067554
3198.11,0.067402
3200.08,0.06736
3202.06,0.067484
3204.04,0.067645
3206.02,0.06743
3208.0,0.067316
3209.99,0.067456
3211.98,0.067454
3213.97,0.067512
3215.96,0.067573
3217.96,0.067457
3219.96,0.067464
3221.96,0.067556
3223.96,0.067599
3225.97,0.067619
3227.98,0.067677
3229.99,0.067816
3232.0,0.067847
3234.02,0.067748
3236.04,0.067681
3238.06,0.067635
3240.08,0.06767
3242.11,0.067758
3244.14,0.067778
3246.17,0.067753
3248.2,0.067715
3250.24,0.06764
3252.28,0.067709
3254.32,0.067719
3256.37,0.067708
3258.41,0.067766
3260.46,0.067762
3262.51,0.067759
3264.57,0.067865
3266.63,0.067947
3268.69,0.067936
3270.75,0.067924
3272.81,0.06795
3274.88,0.067942
3276.95,0.067825
3279.02,0.067882
3281.1,0.068041
3283.18,0.068018
3285.26,0.067983
3287.34,0.067874
3289.43,0.067777
3291.51,0.067929
3293.61,0.068062
3295.7,0.067939
3297.8,0.067894
3299.9,0.067948
3302.0,0.068036
3304.1,0.068121
3306.21,0.068088
3308.32,0.068004
3310.43,0.068059
3312.55,0.068145
3314.66,0.068171
3316.79,0.068245
3318.91,0.068187
3321.03,0.068106
3323.16,0.068187
3325.29,0.068311
3327.43,0.068353
3329.57,0.068279
3331.71,0.068245
3333.85,0.068281
3335.99,0.068227
3338.14,0.06815
3340.29,0.06831
3342.45,0.068364
3344.6,0.068298
3346.76,0.068293
3348.92,0.068226
3351.09,0.068268
3353.26,0.068312
3355.43,0.068281
3357.6,0.068341
3359.78,0.068516
3361.96,0.068504
3364.14,0.068458
3366.32,0.068531
3368.51,0.068562
3370.7,0.068497
3372.89,0.068318
3375.09,0.068391
3377.29,0.068565
3379.49,0.068608
3381.69,0.06854
3383.9,0.068494
3386.11,0.068521
3388.32,0.068533
3390.54,0.068537
3392.76,0.068667
3394.98,0.068646
3397.21,0.068611
3399.43,0.068753
3401.66,0.068876
3403.9,0.068844
3406.13,0.06877
3408.37,0.068771
3410.61,0.068822
3412.86,0.068877
3415.11,0.068779
3417.36,0.0687
3419.61,0.068801
3421.87,0.068925
3424.13,0.068982
3426.39,0.068968
3428.66,0.068935
3430.93,0.068884
3433.2,0.068764
3435.48,0.068749
3437.76,0.068867
3440.04,0.06892
3442.32,0.068975
3444.61,0.069038
3446.9,0.068983
3449.19,0.068965
3451.49,0.069009
3453.79,0.069071
3456.09,0.068989
3458.4,0.069003
3460.7,0.069051
3463.02,0.069071
3465.33,0.069122
3467.65,0.069246
3469.97,0.069294
3472.29,0.069212
3474.62,0.069172
3476.95,0.069224
3479.29,0.069205
3481.62,0.069132
3483.96,0.069139
3486.3,0.069259
3488.65,0.069333
3491.0,0.069357
3493.35,0.069341
3495.71,0.069294
3498.07,0.069327
3500.43,0.06938
3502.79,0.069369
3505.16,0.06942
3507.53,0.069504
3509.91,0.069543
3512.29,0.069479
3514.67,0.069469
3517.05,0.069448
3519.44,0.069358
3521.83,0.069279
3524.23,0.069341
3526.62,0.069454
3529.02,0.069473
3531.43,0.069503
3533.83,0.069567
3536.24,0.069597
3538.66,0.069618
3541.08,0.069609
3543.5,0.069537
3545.92,0.069537
3548.35,0.069569
3550.78,0.069664
3553.21,0.069713
3555.65,0.069709
3558.09,0.069697
3560.53,0.069768
3562.98,0.069765
3565.43,0.069748
3567.88,0.069759
3570.34,0.06979
3572.8,0.069865
3575.27,0.069895
3577.73,0.069887
3580.2,0.069879
3582.68,0.069966
3585.16,0.069996
3587.64,0.069971
3590.12,0.070002
3592.61,0.070043
3595.1,0.070043
3597.6,0.070038
3600.09,0.070085
3602.6,0.070043
3605.1,0.070077
3607.61,0.070138
3610.12,0.070185
3612.64,0.070226
3615.16,0.070234
3617.68,0.070233
3620.21,0.070281
3622.74,0.070293
3625.27,0.070281
3627.81,0.070355
3630.35,0.070397
3632.89,0.070399
3635.44,0.070336
3637.99,0.070375
3640.54,0.070408
3643.1,0.07045
3645.66,0.070463
3648.23,0.070448
3650.8,0.070445
3653.37,0.070492
3655.95,0.070469
3658.53,0.07048
3661.11,0.070535
3663.7,0.070538
3666.29,0.070561
3668.89,0.070506
3671.48,0.070511
3674.09,0.070566
3676.69,0.070638
3679.3,0.070681
3681.91,0.07065
3684.53,0.070706
3687.15,0.070734
3689.78,0.070716
3692.4,0.070797
3695.04,0.070816
3697.67,0.070762
3700.31,0.070729
3702.95,0.070731
3705.6,0.070783
3708.25,0.070836
3710.91,0.070792
3713.56,0.070809
3716.23,0.070844
3718.89,0.070884
3721.56,0.070945
3724.23,0.070964
3726.91,0.071007
3729.59,0.071012
3732.28,0.071014
3734.97,0.071018
3737.66,0.071046
3740.36,0.071114
3743.06,0.071108
3745.76,0.071063
3748.47,0.071045
3751.18,0.071117
3753.9,0.071159
