Database of Origin,University of Winnipeg Spectrophotometer Facility
Sample Description,9.2. MAGNETITE: Merged RELAB & Nicole / Merged at 2.5 um / different viewing geometry
Date Added,2016-07-15 22:02:59.995012

Data ID,RPN_MAG_01          
Sample ID,MAG101
Mineral Name,Magnetite
Grain Size,<45
Viewing Geometry,30 / 0 | 30
Resolution,1.2-129
Material Class,Magnetite

Wavelength
305.0,0.040878
310.0,0.042255
315.0,0.04235
320.0,0.043272
325.0,0.043806
330.0,0.04446
335.0,0.045128
340.0,0.044501
345.0,0.046141
350.0,0.046056
355.0,0.04716
360.0,0.04729
365.0,0.047733
370.0,0.048007
375.0,0.047769
380.0,0.047987
385.0,0.04814
390.0,0.048384
395.0,0.048234
400.0,0.048272
405.0,0.048286
410.0,0.048009
415.0,0.048085
420.0,0.048202
425.0,0.048078
430.0,0.048369
435.0,0.04849
440.0,0.048342
445.0,0.048513
450.0,0.048712
455.0,0.048633
460.0,0.048572
465.0,0.048777
470.0,0.048792
475.0,0.048955
480.0,0.049068
485.0,0.049276
490.0,0.04927
495.0,0.049378
500.0,0.049575
505.0,0.049771
510.0,0.049791
515.0,0.049806
520.0,0.04999
525.0,0.050158
530.0,0.050454
535.0,0.050671
540.0,0.050889
545.0,0.050938
550.0,0.050817
555.0,0.051005
560.0,0.05104
565.0,0.051146
570.0,0.051172
575.0,0.051258
580.0,0.050828
585.0,0.051381
590.0,0.051466
595.0,0.051234
600.0,0.051366
605.0,0.051557
610.0,0.051684
615.0,0.051932
620.0,0.052073
625.0,0.052328
630.0,0.052306
635.0,0.052397
640.0,0.052378
645.0,0.052356
650.0,0.05231
655.0,0.052252
660.0,0.05218
665.0,0.052206
670.0,0.052154
675.0,0.052153
680.0,0.052247
685.0,0.052324
690.0,0.052497
695.0,0.051944
700.0,0.051955
705.0,0.051967
710.0,0.052129
715.0,0.05219
720.0,0.052046
725.0,0.051911
730.0,0.051718
735.0,0.051754
740.0,0.051458
745.0,0.051489
750.0,0.051369
755.0,0.05152
760.0,0.051262
765.0,0.05126
770.0,0.051135
775.0,0.051075
780.0,0.050769
785.0,0.050527
790.0,0.050577
795.0,0.050414
800.0,0.050592
805.0,0.050155
810.0,0.050413
815.0,0.050276
820.0,0.050055
825.0,0.049769
830.0,0.049731
835.0,0.04951
840.0,0.049115
845.0,0.049087
850.0,0.048955
855.0,0.048637
860.0,0.048234
865.0,0.048596
870.0,0.048099
875.0,0.047831
880.0,0.047599
885.0,0.047628
890.0,0.047289
895.0,0.046932
900.0,0.04701
905.0,0.046699
910.0,0.046441
915.0,0.046345
920.0,0.04619
925.0,0.045675
930.0,0.045471
935.0,0.045349
940.0,0.045216
945.0,0.044932
950.0,0.045023
955.0,0.044717
960.0,0.044804
965.0,0.044386
970.0,0.044379
975.0,0.044442
980.0,0.044322
985.0,0.044093
990.0,0.044078
995.0,0.044147
1000.0,0.04391
1005.0,0.043757
1010.0,0.044034
1015.0,0.043855
1020.0,0.043697
1025.0,0.043691
1030.0,0.043721
1035.0,0.043527
1040.0,0.043596
1045.0,0.043673
1050.0,0.043666
1055.0,0.043372
1060.0,0.043661
1065.0,0.043695
1070.0,0.043872
1075.0,0.043761
1080.0,0.04386
1085.0,0.043618
1090.0,0.04353
1095.0,0.043631
1100.0,0.043548
1105.0,0.043521
1110.0,0.043461
1115.0,0.043462
1120.0,0.043752
1125.0,0.04378
1130.0,0.043853
1135.0,0.043987
1140.0,0.044027
1145.0,0.044028
1150.0,0.044091
1155.0,0.04424
1160.0,0.04436
1165.0,0.044244
1170.0,0.04423
1175.0,0.044373
1180.0,0.044482
1185.0,0.044584
1190.0,0.044594
1195.0,0.044869
1200.0,0.044955
1205.0,0.045067
1210.0,0.045005
1215.0,0.045272
1220.0,0.045272
1225.0,0.045161
1230.0,0.045354
1235.0,0.045317
1240.0,0.04544
1245.0,0.045525
1250.0,0.045729
1255.0,0.04548
1260.0,0.045676
1265.0,0.045758
1270.0,0.045767
1275.0,0.045795
1280.0,0.045989
1285.0,0.046114
1290.0,0.046166
1295.0,0.046276
1300.0,0.046375
1305.0,0.046268
1310.0,0.046737
1315.0,0.046511
1320.0,0.046818
1325.0,0.046855
1330.0,0.046959
1335.0,0.047312
1340.0,0.047099
1345.0,0.047288
1350.0,0.047264
1355.0,0.047826
1360.0,0.048045
1365.0,0.0475
1370.0,0.047874
1375.0,0.047814
1380.0,0.047995
1385.0,0.047945
1390.0,0.048703
1395.0,0.048727
1400.0,0.048666
1405.0,0.048659
1410.0,0.048938
1415.0,0.048929
1420.0,0.049422
1425.0,0.048978
1430.0,0.049428
1435.0,0.049612
1440.0,0.049726
1445.0,0.049761
1450.0,0.049527
1455.0,0.049816
1460.0,0.050026
1465.0,0.050084
1470.0,0.050519
1475.0,0.050243
1480.0,0.050397
1485.0,0.050683
1490.0,0.05065
1495.0,0.050798
1500.0,0.050891
1505.0,0.050942
1510.0,0.051243
1515.0,0.051323
1520.0,0.051281
1525.0,0.051196
1530.0,0.051477
1535.0,0.05153
1540.0,0.051713
1545.0,0.051955
1550.0,0.052177
1555.0,0.052061
1560.0,0.052613
1565.0,0.052594
1570.0,0.052448
1575.0,0.05276
1580.0,0.052744
1585.0,0.052672
1590.0,0.052525
1595.0,0.053272
1600.0,0.053203
1605.0,0.053001
1610.0,0.05325
1615.0,0.053247
1620.0,0.053464
1625.0,0.053765
1630.0,0.053826
1635.0,0.053925
1640.0,0.053751
1645.0,0.054088
1650.0,0.053896
1655.0,0.054071
1660.0,0.054677
1665.0,0.054986
1670.0,0.054803
1675.0,0.055081
1680.0,0.054774
1685.0,0.055212
1690.0,0.054642
1695.0,0.055025
1700.0,0.055035
1705.0,0.055238
1710.0,0.05529
1715.0,0.055229
1720.0,0.055431
1725.0,0.055469
1730.0,0.055597
1735.0,0.055566
1740.0,0.055915
1745.0,0.055908
1750.0,0.056042
1755.0,0.056213
1760.0,0.056155
1765.0,0.056245
1770.0,0.056419
1775.0,0.056493
1780.0,0.056579
1785.0,0.056778
1790.0,0.056761
1795.0,0.056726
1800.0,0.056947
1805.0,0.056859
1810.0,0.056894
1815.0,0.057064
1820.0,0.057122
1825.0,0.057396
1830.0,0.057305
1835.0,0.05723
1840.0,0.057421
1845.0,0.057704
1850.0,0.057848
1855.0,0.057942
1860.0,0.058225
1865.0,0.058235
1870.0,0.058168
1875.0,0.058342
1880.0,0.058702
1885.0,0.058429
1890.0,0.058497
1895.0,0.058763
1900.0,0.058403
1905.0,0.058704
1910.0,0.05917
1915.0,0.058898
1920.0,0.059041
1925.0,0.059359
1930.0,0.059255
1935.0,0.059426
1940.0,0.059408
1945.0,0.059649
1950.0,0.059694
1955.0,0.059553
1960.0,0.059991
1965.0,0.059951
1970.0,0.060131
1975.0,0.060154
1980.0,0.060349
1985.0,0.06034
1990.0,0.060556
1995.0,0.060477
2000.0,0.060478
2005.0,0.060617
2010.0,0.060681
2015.0,0.06069
2020.0,0.060853
2025.0,0.060957
2030.0,0.06089
2035.0,0.06093
2040.0,0.06088
2045.0,0.061006
2050.0,0.061064
2055.0,0.061003
2060.0,0.061374
2065.0,0.06141
2070.0,0.061384
2075.0,0.061559
2080.0,0.06146
2085.0,0.061549
2090.0,0.061598
2095.0,0.061627
2100.0,0.061739
2105.0,0.061695
2110.0,0.061863
2115.0,0.062078
2120.0,0.061862
2125.0,0.062014
2130.0,0.062016
2135.0,0.062144
2140.0,0.062236
2145.0,0.062522
2150.0,0.062414
2155.0,0.062445
2160.0,0.062346
2165.0,0.062567
2170.0,0.062616
2175.0,0.062506
2180.0,0.062525
2185.0,0.062598
2190.0,0.062642
2195.0,0.062637
2200.0,0.062697
2205.0,0.06273
2210.0,0.062912
2215.0,0.062883
2220.0,0.063141
2225.0,0.062968
2230.0,0.063004
2235.0,0.063223
2240.0,0.063138
2245.0,0.063281
2250.0,0.063406
2255.0,0.063476
2260.0,0.063612
2265.0,0.063461
2270.0,0.063821
2275.0,0.063873
2280.0,0.063975
2285.0,0.063787
2290.0,0.063964
2295.0,0.063908
2300.0,0.06427
2305.0,0.064445
2310.0,0.06426
2315.0,0.064485
2320.0,0.064288
2325.0,0.064379
2330.0,0.064314
2335.0,0.064404
2340.0,0.064445
2345.0,0.064195
2350.0,0.064403
2355.0,0.064516
2360.0,0.064365
2365.0,0.064685
2370.0,0.064381
2375.0,0.064623
2380.0,0.064647
2385.0,0.064669
2390.0,0.064565
2395.0,0.064796
2400.0,0.06479
2405.0,0.064795
2410.0,0.06477
2415.0,0.064974
2420.0,0.064924
2425.0,0.065036
2430.0,0.06511
2435.0,0.064914
2440.0,0.065173
2445.0,0.065159
2450.0,0.065023
2455.0,0.06515
2460.0,0.065188
2465.0,0.065275
2470.0,0.065039
2475.0,0.065305
2480.0,0.065187
2485.0,0.064969
2490.0,0.065195
2495.0,0.065167
2500.0,0.065417
2502.0,0.065469
2503.2,0.06518
2504.41,0.065031
2505.62,0.064952
2506.83,0.064885
2508.05,0.064759
2509.26,0.064643
2510.48,0.064748
2511.69,0.065114
2512.91,0.06541
2514.13,0.065282
2515.35,0.064916
2516.57,0.064999
2517.79,0.065003
2519.02,0.064664
2520.24,0.064676
2521.47,0.06491
2522.69,0.06489
2523.92,0.064746
2525.15,0.064678
2526.38,0.06482
2527.61,0.064781
2528.85,0.064759
2530.08,0.064791
2531.32,0.064594
2532.55,0.064742
2533.79,0.065104
2535.03,0.0649
2536.27,0.064744
2537.51,0.064991
2538.75,0.065096
2540.0,0.064874
2541.24,0.064675
2542.49,0.064571
2543.74,0.064795
2544.99,0.06479
2546.24,0.064424
2547.49,0.064795
2548.74,0.065126
2549.99,0.06508
2551.25,0.064977
2552.5,0.064846
2553.76,0.065015
2555.02,0.064948
2556.28,0.064719
2557.54,0.064725
2558.8,0.064794
2560.07,0.064913
2561.33,0.06511
2562.6,0.065098
2563.86,0.064776
2565.13,0.064595
2566.4,0.064875
2567.67,0.064996
2568.95,0.064643
2570.22,0.064524
2571.5,0.064591
2572.77,0.064614
2574.05,0.064528
2575.33,0.0644
2576.61,0.064355
2577.89,0.064433
2579.17,0.06458
2580.46,0.064524
2581.74,0.064732
2583.03,0.064945
2584.31,0.064719
2585.6,0.064626
2586.89,0.064416
2588.19,0.064291
2589.48,0.064731
2590.77,0.064904
2592.07,0.064627
2593.36,0.064507
2594.66,0.064643
2595.96,0.064649
2597.26,0.064825
2598.56,0.064955
2599.87,0.064751
2601.17,0.064725
2602.48,0.064878
2603.78,0.064914
2605.09,0.064924
2606.4,0.064918
2607.71,0.065146
2609.03,0.06517
2610.34,0.064901
2611.66,0.064898
2612.97,0.064814
2614.29,0.06464
2615.61,0.064619
2616.93,0.06454
2618.25,0.064522
2619.57,0.064593
2620.9,0.064476
2622.22,0.064398
2623.55,0.064422
2624.88,0.064703
2626.21,0.065021
2627.54,0.064845
2628.87,0.064459
2630.21,0.064353
2631.54,0.064393
2632.88,0.064589
2634.21,0.064691
2635.55,0.064762
2636.89,0.064695
2638.24,0.064521
2639.58,0.064249
2640.92,0.064078
2642.27,0.064271
2643.62,0.064491
2644.97,0.064461
2646.32,0.064625
2647.67,0.064754
2649.02,0.064493
2650.38,0.064505
2651.73,0.064703
2653.09,0.064547
2654.45,0.064564
2655.81,0.064511
2657.17,0.064415
2658.53,0.064568
2659.89,0.064426
2661.26,0.064369
2662.63,0.064557
2664.0,0.06478
2665.36,0.064811
2666.74,0.064487
2668.11,0.064369
2669.48,0.064471
2670.86,0.064283
2672.23,0.064253
2673.61,0.064461
2674.99,0.064146
2676.37,0.063985
2677.76,0.063989
2679.14,0.063861
2680.52,0.063992
2681.91,0.063952
2683.3,0.063914
2684.69,0.064105
2686.08,0.064169
2687.47,0.063966
2688.87,0.064024
2690.26,0.064161
2691.66,0.06411
2693.06,0.064098
2694.46,0.064141
2695.86,0.064029
2697.26,0.063707
2698.66,0.063393
2700.07,0.063026
2701.48,0.062997
2702.89,0.063185
2704.3,0.063013
2705.71,0.062792
2707.12,0.062549
2708.53,0.062219
2709.95,0.062073
2711.37,0.062114
2712.79,0.06206
2714.21,0.062323
2715.63,0.06245
2717.05,0.062604
2718.48,0.062766
2719.9,0.06274
2721.33,0.062648
2722.76,0.06276
2724.19,0.062942
2725.62,0.062938
2727.06,0.062943
2728.49,0.063078
2729.93,0.062969
2731.37,0.062868
2732.81,0.063027
2734.25,0.063184
2735.69,0.063071
2737.14,0.062889
2738.58,0.063015
2740.03,0.063214
2741.48,0.063318
2742.93,0.063178
2744.38,0.063293
2745.83,0.063301
2747.29,0.063099
2748.75,0.062979
2750.2,0.063103
2751.66,0.063391
2753.13,0.063457
2754.59,0.063527
2756.05,0.063408
2757.52,0.06323
2758.99,0.063104
2760.46,0.063219
2761.93,0.063392
2763.4,0.06343
2764.87,0.063202
2766.35,0.063135
2767.82,0.063087
2769.3,0.063088
2770.78,0.063101
2772.26,0.06313
2773.75,0.063182
2775.23,0.063353
2776.72,0.063465
2778.21,0.063418
2779.7,0.063436
2781.19,0.06325
2782.68,0.063093
2784.18,0.063111
2785.67,0.062971
2787.17,0.06277
2788.67,0.062709
2790.17,0.062632
2791.67,0.062486
2793.18,0.062345
2794.68,0.062005
2796.19,0.061909
2797.7,0.061788
2799.21,0.061681
2800.72,0.061659
2802.24,0.061387
2803.75,0.061248
2805.27,0.061171
2806.79,0.061329
2808.31,0.061209
2809.83,0.061027
2811.35,0.061257
2812.88,0.061359
2814.41,0.061362
2815.93,0.061267
2817.46,0.061055
2819.0,0.060843
2820.53,0.060765
2822.07,0.06073
2823.6,0.060773
2825.14,0.06085
2826.68,0.060854
2828.22,0.060985
2829.77,0.061118
2831.31,0.061122
2832.86,0.06135
2834.41,0.061351
2835.96,0.061272
2837.51,0.061559
2839.07,0.061582
2840.62,0.061831
2842.18,0.061966
2843.74,0.061959
2845.3,0.062202
2846.86,0.062369
2848.43,0.062382
2849.99,0.062413
2851.56,0.062447
2853.13,0.062442
2854.7,0.062275
2856.27,0.062162
2857.85,0.062237
2859.42,0.062371
2861.0,0.062547
2862.58,0.062515
2864.16,0.062341
2865.75,0.062302
2867.33,0.062291
2868.92,0.062278
2870.51,0.062207
2872.1,0.062359
2873.69,0.062231
2875.28,0.062237
2876.88,0.062359
2878.48,0.062431
2880.07,0.062508
2881.68,0.062616
2883.28,0.062546
2884.88,0.062338
2886.49,0.062311
2888.1,0.062351
2889.71,0.062404
2891.32,0.062285
2892.93,0.062339
2894.55,0.062427
2896.16,0.062592
2897.78,0.062528
2899.4,0.062449
2901.03,0.062476
2902.65,0.062496
2904.28,0.062399
2905.91,0.062305
2907.54,0.062529
2909.17,0.062545
2910.8,0.062314
2912.44,0.062244
2914.07,0.062185
2915.71,0.062129
2917.35,0.062144
2918.99,0.062151
2920.64,0.061921
2922.29,0.061924
2923.93,0.062136
2925.58,0.06226
2927.24,0.06218
2928.89,0.062067
2930.55,0.061962
2932.2,0.062039
2933.86,0.062049
2935.52,0.06212
2937.19,0.06205
2938.85,0.062054
2940.52,0.062121
2942.19,0.062064
2943.86,0.062039
2945.53,0.062053
2947.21,0.062045
2948.88,0.061787
2950.56,0.061673
2952.24,0.061797
2953.92,0.061907
2955.61,0.062106
2957.29,0.062136
2958.98,0.061865
2960.67,0.061883
2962.36,0.062105
2964.06,0.062031
2965.75,0.062056
2967.45,0.061927
2969.15,0.061751
2970.85,0.06175
2972.55,0.061871
2974.26,0.062006
2975.97,0.062062
2977.68,0.062299
2979.39,0.062512
2981.1,0.062272
2982.82,0.062026
2984.53,0.061985
2986.25,0.061975
2987.97,0.062132
2989.7,0.062357
2991.42,0.062359
2993.15,0.06229
2994.88,0.062174
2996.61,0.061893
2998.34,0.061896
3000.08,0.06218
3001.82,0.062336
3003.55,0.062415
3005.3,0.062232
3007.04,0.062012
3008.78,0.061948
3010.53,0.061971
3012.28,0.061999
3014.03,0.062098
3015.79,0.062072
3017.54,0.062128
3019.3,0.062246
3021.06,0.062221
3022.82,0.06214
3024.58,0.062176
3026.35,0.06214
3028.12,0.062229
3029.89,0.062238
3031.66,0.062156
3033.43,0.062198
3035.21,0.062307
3036.99,0.062285
3038.77,0.062245
3040.55,0.06233
3042.33,0.062291
3044.12,0.062251
3045.91,0.062297
3047.7,0.06232
3049.49,0.062375
3051.29,0.062413
3053.08,0.062314
3054.88,0.062316
3056.68,0.062356
3058.49,0.062248
3060.29,0.062341
3062.1,0.062544
3063.91,0.062354
3065.72,0.062291
3067.54,0.062303
3069.35,0.062139
3071.17,0.062108
3072.99,0.062327
3074.81,0.062432
3076.64,0.062383
3078.47,0.062433
3080.29,0.062439
3082.13,0.062329
3083.96,0.062252
3085.79,0.062202
3087.63,0.062234
3089.47,0.062215
3091.31,0.06221
3093.16,0.062125
3095.01,0.062214
3096.85,0.062382
3098.71,0.062326
3100.56,0.062311
3102.41,0.062329
3104.27,0.062303
3106.13,0.062341
3107.99,0.062256
3109.86,0.062121
3111.73,0.062123
3113.59,0.062263
3115.47,0.062342
3117.34,0.062405
3119.21,0.062272
3121.09,0.062047
3122.97,0.062191
3124.86,0.062366
3126.74,0.062374
3128.63,0.06235
3130.52,0.062269
3132.41,0.062153
3134.3,0.06208
3136.2,0.062249
3138.1,0.062254
3140.0,0.062232
3141.9,0.062422
3143.81,0.062377
3145.71,0.062281
3147.62,0.062393
3149.54,0.062385
3151.45,0.062408
3153.37,0.062387
3155.29,0.062237
3157.21,0.062344
3159.13,0.062433
3161.06,0.062388
3162.99,0.06236
3164.92,0.062397
3166.85,0.06233
3168.79,0.06227
3170.72,0.062306
3172.67,0.062266
3174.61,0.062362
3176.55,0.06242
3178.5,0.062329
3180.45,0.062381
3182.4,0.062417
3184.36,0.062391
3186.32,0.062367
3188.27,0.062453
3190.24,0.062373
3192.2,0.062328
3194.17,0.062453
3196.14,0.062381
3198.11,0.06226
3200.08,0.062391
3202.06,0.062517
3204.04,0.062587
3206.02,0.06245
3208.0,0.062207
3209.99,0.062262
3211.98,0.062352
3213.97,0.062367
3215.96,0.062456
3217.96,0.062599
3219.96,0.062543
3221.96,0.062484
3223.96,0.062538
3225.97,0.062511
3227.98,0.062295
3229.99,0.06225
3232.0,0.06226
3234.02,0.062382
3236.04,0.06245
3238.06,0.062485
3240.08,0.062459
3242.11,0.062433
3244.14,0.062347
3246.17,0.062292
3248.2,0.06231
3250.24,0.062364
3252.28,0.062391
3254.32,0.062523
3256.37,0.062604
3258.41,0.062563
3260.46,0.062638
3262.51,0.06249
3264.57,0.062387
3266.63,0.062474
3268.69,0.062577
3270.75,0.062509
3272.81,0.062448
3274.88,0.062524
3276.95,0.062659
3279.02,0.062581
3281.1,0.062522
3283.18,0.06259
3285.26,0.062513
3287.34,0.062468
3289.43,0.062455
3291.51,0.062594
3293.61,0.062634
3295.7,0.062489
3297.8,0.062439
3299.9,0.062436
3302.0,0.062492
3304.1,0.062596
3306.21,0.062516
3308.32,0.062386
3310.43,0.062489
3312.55,0.062572
3314.66,0.062572
3316.79,0.06259
3318.91,0.062462
3321.03,0.06225
3323.16,0.062402
3325.29,0.062757
3327.43,0.062724
3329.57,0.062588
3331.71,0.062598
3333.85,0.06267
3335.99,0.062672
3338.14,0.062484
3340.29,0.062447
3342.45,0.062586
3344.6,0.062584
3346.76,0.062565
3348.92,0.06257
3351.09,0.062611
3353.26,0.062525
3355.43,0.062422
3357.6,0.062459
3359.78,0.062463
3361.96,0.062501
3364.14,0.062553
3366.32,0.062562
3368.51,0.062591
3370.7,0.062706
3372.89,0.06265
3375.09,0.062612
3377.29,0.062641
3379.49,0.062678
3381.69,0.062776
3383.9,0.062839
3386.11,0.062709
3388.32,0.062684
3390.54,0.062789
3392.76,0.062883
3394.98,0.062895
3397.21,0.062805
3399.43,0.062669
3401.66,0.062614
3403.9,0.06275
3406.13,0.062754
3408.37,0.062776
3410.61,0.062873
3412.86,0.062847
3415.11,0.062815
3417.36,0.062799
3419.61,0.062855
3421.87,0.062933
3424.13,0.062974
3426.39,0.062851
3428.66,0.062835
3430.93,0.062908
3433.2,0.062836
3435.48,0.062966
3437.76,0.063055
3440.04,0.063034
3442.32,0.062976
3444.61,0.062873
3446.9,0.062919
3449.19,0.062804
3451.49,0.062895
3453.79,0.063034
3456.09,0.062967
3458.4,0.062943
3460.7,0.06307
3463.02,0.063114
3465.33,0.063105
3467.65,0.063057
3469.97,0.062995
3472.29,0.063037
3474.62,0.063082
3476.95,0.063157
3479.29,0.063188
3481.62,0.06308
3483.96,0.06304
3486.3,0.0631
3488.65,0.063186
3491.0,0.063233
3493.35,0.063207
3495.71,0.063218
3498.07,0.063284
3500.43,0.063359
3502.79,0.063409
3505.16,0.063488
3507.53,0.063579
3509.91,0.063614
3512.29,0.063588
3514.67,0.063521
3517.05,0.063535
3519.44,0.063518
3521.83,0.063462
3524.23,0.06351
3526.62,0.063582
3529.02,0.063682
3531.43,0.063686
3533.83,0.063617
3536.24,0.063598
3538.66,0.063646
3541.08,0.06372
3543.5,0.06381
3545.92,0.063808
3548.35,0.063743
3550.78,0.063822
3553.21,0.063859
3555.65,0.063836
3558.09,0.06386
3560.53,0.063813
3562.98,0.06377
3565.43,0.063818
3567.88,0.063872
3570.34,0.063971
3572.8,0.064002
3575.27,0.063968
3577.73,0.063954
3580.2,0.063981
3582.68,0.06396
3585.16,0.063885
3587.64,0.06387
3590.12,0.063969
3592.61,0.063912
3595.1,0.063888
3597.6,0.063971
3600.09,0.064025
3602.6,0.064034
3605.1,0.064006
3607.61,0.064038
3610.12,0.064222
3612.64,0.06423
3615.16,0.064175
3617.68,0.064127
3620.21,0.064197
3622.74,0.064257
3625.27,0.064219
3627.81,0.064262
3630.35,0.064236
3632.89,0.064196
3635.44,0.064232
3637.99,0.064293
3640.54,0.064413
3643.1,0.064517
3645.66,0.0645
3648.23,0.064433
3650.8,0.064378
3653.37,0.064396
3655.95,0.064369
3658.53,0.064391
3661.11,0.06445
3663.7,0.064455
3666.29,0.064587
3668.89,0.064669
3671.48,0.064688
3674.09,0.064613
3676.69,0.064519
3679.3,0.064538
3681.91,0.064558
3684.53,0.064546
3687.15,0.064569
3689.78,0.064606
3692.4,0.064601
3695.04,0.06456
3697.67,0.064583
3700.31,0.064603
3702.95,0.06461
3705.6,0.064633
3708.25,0.064675
3710.91,0.064734
3713.56,0.064812
3716.23,0.064835
3718.89,0.064756
3721.56,0.064778
3724.23,0.064862
3726.91,0.064815
3729.59,0.064804
3732.28,0.064875
3734.97,0.064921
3737.66,0.064889
3740.36,0.064888
3743.06,0.064947
3745.76,0.064911
3748.47,0.064932
3751.18,0.065003
3753.9,0.064975
