Database of Origin,University of Winnipeg Spectrophotometer Facility
Sample Description,8. Sulfates: RELAB + Nicolet spectra / Spectra all made consistently merged: Jan. / 10 / 2005
Date Added,2016-07-15 22:05:54.838823

Data ID,RPN_SUL_15          
Sample ID,SPT104
Mineral Name,ferric sulfate (syn)
Grain Size,unsorted
Viewing Geometry,30 / 0 | 30
Resolution,5 / 1.3-129
Material Class,Sulfate

Wavelength
305.0,0.017444
310.0,0.016333
315.0,0.015978
320.0,0.01601
325.0,0.016099
330.0,0.015751
335.0,0.015474
340.0,0.015345
345.0,0.015129
350.0,0.014766
355.0,0.0145
360.0,0.01428
365.0,0.014494
370.0,0.014869
375.0,0.016222
380.0,0.018407
385.0,0.022403
390.0,0.027832
395.0,0.035157
400.0,0.045195
405.0,0.058136
410.0,0.070262
415.0,0.085372
420.0,0.095911
425.0,0.100491
430.0,0.105672
435.0,0.12061
440.0,0.14184
445.0,0.162287
450.0,0.17607
455.0,0.185451
460.0,0.19173
465.0,0.199439
470.0,0.208552
475.0,0.220387
480.0,0.234642
485.0,0.249565
490.0,0.265145
495.0,0.279431
500.0,0.291944
505.0,0.302808
510.0,0.310337
515.0,0.316208
520.0,0.319846
525.0,0.324061
530.0,0.32339
535.0,0.325526
540.0,0.326151
545.0,0.327408
550.0,0.327564
555.0,0.329847
560.0,0.331447
565.0,0.334445
570.0,0.337271
575.0,0.340982
580.0,0.345916
585.0,0.350685
590.0,0.355364
595.0,0.359577
600.0,0.364765
605.0,0.369692
610.0,0.373484
615.0,0.378229
620.0,0.381616
625.0,0.385631
630.0,0.38807
635.0,0.3906
640.0,0.391913
645.0,0.392594
650.0,0.394524
655.0,0.393915
660.0,0.393928
665.0,0.395221
670.0,0.393883
675.0,0.390768
680.0,0.390818
685.0,0.388136
690.0,0.384352
695.0,0.382232
700.0,0.376114
705.0,0.3717
710.0,0.3688
715.0,0.363453
720.0,0.359133
725.0,0.35323
730.0,0.344377
735.0,0.341778
740.0,0.335749
745.0,0.332526
750.0,0.327435
755.0,0.324449
760.0,0.319364
765.0,0.316848
770.0,0.312822
775.0,0.310195
780.0,0.306467
785.0,0.303845
790.0,0.302873
795.0,0.3006
800.0,0.305188
805.0,0.30311
810.0,0.301204
815.0,0.300653
820.0,0.300165
825.0,0.300412
830.0,0.300277
835.0,0.300071
840.0,0.301711
845.0,0.302356
850.0,0.304492
855.0,0.301918
860.0,0.303584
865.0,0.306291
870.0,0.310329
875.0,0.312635
880.0,0.317602
885.0,0.322623
890.0,0.3276
895.0,0.332829
900.0,0.338765
905.0,0.344746
910.0,0.35249
915.0,0.360471
920.0,0.368911
925.0,0.377256
930.0,0.386161
935.0,0.395623
940.0,0.406813
945.0,0.414524
950.0,0.427303
955.0,0.436454
960.0,0.445923
965.0,0.455255
970.0,0.465403
975.0,0.474034
980.0,0.486239
985.0,0.49529
990.0,0.503882
995.0,0.51413
1000.0,0.522703
1005.0,0.533609
1010.0,0.543335
1015.0,0.551438
1020.0,0.560303
1025.0,0.567785
1030.0,0.573671
1035.0,0.581977
1040.0,0.585003
1045.0,0.593286
1050.0,0.59747
1055.0,0.602865
1060.0,0.606288
1065.0,0.610963
1070.0,0.615573
1075.0,0.623468
1080.0,0.625216
1085.0,0.630944
1090.0,0.632208
1095.0,0.638051
1100.0,0.637964
1105.0,0.639408
1110.0,0.639877
1115.0,0.641458
1120.0,0.64274
1125.0,0.64222
1130.0,0.641608
1135.0,0.641977
1140.0,0.637579
1145.0,0.635665
1150.0,0.627192
1155.0,0.615788
1160.0,0.608327
1165.0,0.598305
1170.0,0.589066
1175.0,0.583777
1180.0,0.579599
1185.0,0.575688
1190.0,0.571469
1195.0,0.566126
1200.0,0.561764
1205.0,0.550128
1210.0,0.542862
1215.0,0.53746
1220.0,0.531215
1225.0,0.524729
1230.0,0.519391
1235.0,0.516432
1240.0,0.510655
1245.0,0.505872
1250.0,0.502383
1255.0,0.498853
1260.0,0.495637
1265.0,0.494069
1270.0,0.494814
1275.0,0.492999
1280.0,0.491916
1285.0,0.493286
1290.0,0.491857
1295.0,0.491132
1300.0,0.490232
1305.0,0.487772
1310.0,0.485947
1315.0,0.48369
1320.0,0.47892
1325.0,0.475054
1330.0,0.471315
1335.0,0.464523
1340.0,0.458135
1345.0,0.451663
1350.0,0.445358
1355.0,0.438649
1360.0,0.432984
1365.0,0.429954
1370.0,0.42517
1375.0,0.419731
1380.0,0.41348
1385.0,0.408787
1390.0,0.398867
1395.0,0.384741
1400.0,0.369592
1405.0,0.347334
1410.0,0.325434
1415.0,0.301489
1420.0,0.278786
1425.0,0.259459
1430.0,0.244531
1435.0,0.232895
1440.0,0.223984
1445.0,0.215543
1450.0,0.209364
1455.0,0.203579
1460.0,0.199108
1465.0,0.193797
1470.0,0.189162
1475.0,0.184153
1480.0,0.181127
1485.0,0.178044
1490.0,0.176878
1495.0,0.174704
1500.0,0.173843
1505.0,0.172265
1510.0,0.169216
1515.0,0.166676
1520.0,0.163824
1525.0,0.160214
1530.0,0.156657
1535.0,0.15343
1540.0,0.149293
1545.0,0.145666
1550.0,0.142309
1555.0,0.138913
1560.0,0.13569
1565.0,0.13503
1570.0,0.134534
1575.0,0.135025
1580.0,0.136332
1585.0,0.137167
1590.0,0.138937
1595.0,0.140232
1600.0,0.141554
1605.0,0.141933
1610.0,0.142824
1615.0,0.14268
1620.0,0.142512
1625.0,0.14166
1630.0,0.141697
1635.0,0.140467
1640.0,0.139673
1645.0,0.138793
1650.0,0.138847
1655.0,0.138078
1660.0,0.137145
1665.0,0.13594
1670.0,0.134468
1675.0,0.133255
1680.0,0.132198
1685.0,0.130989
1690.0,0.12932
1695.0,0.127731
1700.0,0.125969
1705.0,0.125271
1710.0,0.123136
1715.0,0.121559
1720.0,0.119877
1725.0,0.118761
1730.0,0.117054
1735.0,0.114929
1740.0,0.113694
1745.0,0.112158
1750.0,0.110582
1755.0,0.109173
1760.0,0.107892
1765.0,0.106262
1770.0,0.105644
1775.0,0.104178
1780.0,0.102931
1785.0,0.101411
1790.0,0.100935
1795.0,0.099941
1800.0,0.098974
1805.0,0.098141
1810.0,0.09733
1815.0,0.097413
1820.0,0.096357
1825.0,0.096607
1830.0,0.096054
1835.0,0.095684
1840.0,0.095009
1845.0,0.095181
1850.0,0.094508
1855.0,0.093733
1860.0,0.092803
1865.0,0.091591
1870.0,0.08979
1875.0,0.088908
1880.0,0.086672
1885.0,0.083188
1890.0,0.079494
1895.0,0.075042
1900.0,0.069512
1905.0,0.063258
1910.0,0.056844
1915.0,0.05106
1920.0,0.046891
1925.0,0.043187
1930.0,0.041107
1935.0,0.039833
1940.0,0.03925
1945.0,0.038359
1950.0,0.038206
1955.0,0.037504
1960.0,0.037368
1965.0,0.037013
1970.0,0.036543
1975.0,0.036051
1980.0,0.035482
1985.0,0.035013
1990.0,0.034426
1995.0,0.033772
2000.0,0.032924
2005.0,0.032234
2010.0,0.031436
2015.0,0.030743
2020.0,0.030423
2025.0,0.030169
2030.0,0.030178
2035.0,0.030036
2040.0,0.030307
2045.0,0.030506
2050.0,0.030803
2055.0,0.031027
2060.0,0.03152
2065.0,0.031819
2070.0,0.03176
2075.0,0.031641
2080.0,0.031496
2085.0,0.030971
2090.0,0.030207
2095.0,0.02962
2100.0,0.028647
2105.0,0.027658
2110.0,0.026748
2115.0,0.025985
2120.0,0.025433
2125.0,0.024982
2130.0,0.024792
2135.0,0.024497
2140.0,0.024629
2145.0,0.024765
2150.0,0.02492
2155.0,0.02536
2160.0,0.026035
2165.0,0.026294
2170.0,0.027583
2175.0,0.028536
2180.0,0.029815
2185.0,0.030747
2190.0,0.031986
2195.0,0.032926
2200.0,0.033914
2205.0,0.034587
2210.0,0.035586
2215.0,0.036105
2220.0,0.037022
2225.0,0.03747
2230.0,0.038193
2235.0,0.039082
2240.0,0.039674
2245.0,0.04005
2250.0,0.040834
2255.0,0.041451
2260.0,0.041999
2265.0,0.04227
2270.0,0.042709
2275.0,0.043055
2280.0,0.043457
2285.0,0.043733
2290.0,0.043893
2295.0,0.044021
2300.0,0.043918
2305.0,0.043493
2310.0,0.043193
2315.0,0.042962
2320.0,0.042468
2325.0,0.042389
2330.0,0.041962
2335.0,0.041457
2340.0,0.041063
2345.0,0.040335
2350.0,0.040016
2355.0,0.039347
2360.0,0.03834
2365.0,0.03837
2370.0,0.037462
2375.0,0.036898
2380.0,0.0364
2385.0,0.035633
2390.0,0.034929
2395.0,0.033997
2400.0,0.033245
2405.0,0.032843
2410.0,0.032155
2415.0,0.031231
2420.0,0.030348
2425.0,0.029665
2430.0,0.029203
2435.0,0.028512
2440.0,0.027765
2445.0,0.027313
2450.0,0.0269
2455.0,0.026237
2460.0,0.025742
2465.0,0.024758
2470.0,0.024287
2475.0,0.023845
2480.0,0.023628
2485.0,0.023025
2490.0,0.022692
2495.0,0.022056
2500.0,0.021843
2505.0,0.021568
2510.0,0.020952
2515.0,0.020717
2520.0,0.020511
2525.0,0.020015
2530.0,0.019823
2535.0,0.019605
2540.0,0.01944
2545.0,0.019221
2550.0,0.019089
2555.0,0.018801
2560.0,0.018614
2565.13,0.018376
2570.22,0.0184
2575.33,0.018311
2580.46,0.018061
2581.74,0.01796
2583.03,0.017824
2584.31,0.017755
2585.6,0.017787
2586.89,0.017581
2588.19,0.01758
2589.48,0.017773
2590.77,0.01776
2592.07,0.017551
2593.36,0.017426
2594.66,0.017329
2595.96,0.017392
2597.26,0.017568
2598.56,0.01761
2599.87,0.017431
2601.17,0.017314
2602.48,0.017515
2603.78,0.017381
2605.09,0.017163
2606.4,0.017406
2607.71,0.017539
2609.03,0.017393
2610.34,0.017304
2611.66,0.017194
2612.97,0.017106
2614.29,0.01723
2615.61,0.017357
2616.93,0.017094
2618.25,0.016895
2619.57,0.016812
2620.9,0.016855
2622.22,0.016934
2623.55,0.01691
2624.88,0.016855
2626.21,0.016694
2627.54,0.016718
2628.87,0.01681
2630.21,0.016717
2631.54,0.016621
2632.88,0.01651
2634.21,0.016451
2635.55,0.016495
2636.89,0.016398
2638.24,0.016323
2639.58,0.016225
2640.92,0.016274
2642.27,0.016321
2643.62,0.016269
2644.97,0.016159
2646.32,0.016162
2647.67,0.016201
2649.02,0.016002
2650.38,0.015886
2651.73,0.015832
2653.09,0.015751
2654.45,0.015699
2655.81,0.01571
2657.17,0.015658
2658.53,0.015404
2659.89,0.015206
2661.26,0.015111
2662.63,0.01512
2664.0,0.015055
2665.36,0.015001
2666.74,0.015164
2668.11,0.015134
2669.48,0.014978
2670.86,0.014801
2672.23,0.014685
2673.61,0.014494
2674.99,0.014374
2676.37,0.014308
2677.76,0.014216
2679.14,0.014102
2680.52,0.013893
2681.91,0.013824
2683.3,0.013729
2684.69,0.013627
2686.08,0.013551
2687.47,0.013459
2688.87,0.013349
2690.26,0.013234
2691.66,0.013033
2693.06,0.012806
2694.46,0.012758
2695.86,0.012846
2697.26,0.012622
2698.66,0.012437
2700.07,0.012326
2701.48,0.012188
2702.89,0.01203
2704.3,0.011761
2705.71,0.011695
2707.12,0.011639
2708.53,0.011373
2709.95,0.011275
2711.37,0.011153
2712.79,0.010953
2714.21,0.010839
2715.63,0.010541
2717.05,0.010358
2718.48,0.010275
2719.9,0.010105
2721.33,0.009987
2722.76,0.009901
2724.19,0.009806
2725.62,0.009396
2727.06,0.008978
2728.49,0.008861
2729.93,0.008756
2731.37,0.008468
2732.81,0.008256
2734.25,0.007965
2735.69,0.007834
2737.14,0.007723
2738.58,0.00749
2740.03,0.007242
2741.48,0.007109
2742.93,0.006939
2744.38,0.00663
2745.83,0.006477
2747.29,0.006389
2748.75,0.006162
2750.2,0.005933
2751.66,0.005789
2753.13,0.005818
2754.59,0.005727
2756.05,0.005459
2757.52,0.005285
2758.99,0.005266
2760.46,0.00523
2761.93,0.005002
2763.4,0.004903
2764.87,0.004913
2766.35,0.004887
2767.82,0.004798
2769.3,0.004743
2770.78,0.004835
2772.26,0.004877
2773.75,0.004667
2775.23,0.00447
2776.72,0.004473
2778.21,0.004563
2779.7,0.004496
2781.19,0.004387
2782.68,0.004364
2784.18,0.0044
2785.67,0.004392
2787.17,0.004252
2788.67,0.004091
2790.17,0.004088
2791.67,0.00411
2793.18,0.004157
2794.68,0.004157
2796.19,0.004146
2797.7,0.004043
2799.21,0.003934
2800.72,0.003979
2802.24,0.004043
2803.75,0.004021
2805.27,0.003951
2806.79,0.003946
2808.31,0.003976
2809.83,0.003922
2811.35,0.003807
2812.88,0.003886
2814.41,0.003835
2815.93,0.003748
2817.46,0.00385
2819.0,0.003866
2820.53,0.003956
2822.07,0.004078
2823.6,0.00396
2825.14,0.003924
2826.68,0.003855
2828.22,0.003685
2829.77,0.003608
2831.31,0.0037
2832.86,0.003761
2834.41,0.003744
2835.96,0.003872
2837.51,0.003836
2839.07,0.003834
2840.62,0.003928
2842.18,0.003902
2843.74,0.003759
2845.3,0.003596
2846.86,0.003644
2848.43,0.003671
2849.99,0.003735
2851.56,0.00379
2853.13,0.003762
2854.7,0.003693
2856.27,0.00365
2857.85,0.003596
2859.42,0.003616
2861.0,0.003686
2862.58,0.003812
2864.16,0.003805
2865.75,0.003638
2867.33,0.003591
2868.92,0.00355
2870.51,0.003574
2872.1,0.003629
2873.69,0.003656
2875.28,0.003652
2876.88,0.003642
2878.48,0.003588
2880.07,0.003607
2881.68,0.003725
2883.28,0.003668
2884.88,0.003621
2886.49,0.00365
2888.1,0.0037
2889.71,0.003717
2891.32,0.003685
2892.93,0.003595
2894.55,0.00356
2896.16,0.003628
2897.78,0.003725
2899.4,0.003665
2901.03,0.003671
2902.65,0.003781
2904.28,0.003745
2905.91,0.003658
2907.54,0.003626
2909.17,0.003738
2910.8,0.003838
2912.44,0.003806
2914.07,0.003649
2915.71,0.003517
2917.35,0.003554
2918.99,0.003606
2920.64,0.00375
2922.29,0.003791
2923.93,0.003762
2925.58,0.003788
2927.24,0.003697
2928.89,0.003613
2930.55,0.003634
2932.2,0.00362
2933.86,0.003689
2935.52,0.003761
2937.19,0.003802
2938.85,0.00378
2940.52,0.003692
2942.19,0.003699
2943.86,0.003719
2945.53,0.003706
2947.21,0.003693
2948.88,0.003739
2950.56,0.003668
2952.24,0.003635
2953.92,0.003695
2955.61,0.003748
2957.29,0.003719
2958.98,0.003737
2960.67,0.003777
2962.36,0.003668
2964.06,0.003645
2965.75,0.003711
2967.45,0.003764
2969.15,0.003732
2970.85,0.003766
2972.55,0.003755
2974.26,0.003709
2975.97,0.003713
2977.68,0.003629
2979.39,0.003678
2981.1,0.003705
2982.82,0.003612
2984.53,0.003631
2986.25,0.003631
2987.97,0.003646
2989.7,0.003629
2991.42,0.003494
2993.15,0.003557
2994.88,0.003681
2996.61,0.00364
2998.34,0.003535
3000.08,0.003577
3001.82,0.003622
3003.55,0.003666
3005.3,0.003683
3007.04,0.003695
3008.78,0.00367
3010.53,0.003685
3012.28,0.003652
3014.03,0.003657
3015.79,0.003644
3017.54,0.003636
3019.3,0.003668
3021.06,0.003718
3022.82,0.003769
3024.58,0.003705
3026.35,0.003784
3028.12,0.003798
3029.89,0.003712
3031.66,0.003735
3033.43,0.003771
3035.21,0.003878
3036.99,0.003943
3038.77,0.003881
3040.55,0.003928
3042.33,0.004067
3044.12,0.004074
3045.91,0.004012
3047.7,0.003958
3049.49,0.003936
3051.29,0.003941
3053.08,0.004013
3054.88,0.004065
3056.68,0.004092
3058.49,0.004131
3060.29,0.004213
3062.1,0.004225
3063.91,0.004235
3065.72,0.004266
3067.54,0.004307
3069.35,0.004349
3071.17,0.004437
3072.99,0.004368
3074.81,0.004262
3076.64,0.004337
3078.47,0.004459
3080.29,0.004491
3082.13,0.004488
3083.96,0.004533
3085.79,0.004593
3087.63,0.00459
3089.47,0.004589
3091.31,0.004582
3093.16,0.004503
3095.01,0.00446
3096.85,0.004582
3098.71,0.004735
3100.56,0.004646
3102.41,0.004629
3104.27,0.00465
3106.13,0.004709
3107.99,0.004753
3109.86,0.004712
3111.73,0.004682
3113.59,0.004796
3115.47,0.004863
3117.34,0.004862
3119.21,0.004815
3121.09,0.004816
3122.97,0.004762
3124.86,0.004803
3126.74,0.004929
3128.63,0.004961
3130.52,0.004934
3132.41,0.004941
3134.3,0.004998
3136.2,0.005012
3138.1,0.004991
3140.0,0.004938
3141.9,0.004999
3143.81,0.005029
3145.71,0.005037
3147.62,0.005004
3149.54,0.00493
3151.45,0.004932
3153.37,0.004963
3155.29,0.00492
3157.21,0.004902
3159.13,0.004915
3161.06,0.004936
3162.99,0.004914
3164.92,0.0049
3166.85,0.004915
3168.79,0.004917
3170.72,0.004951
3172.67,0.005002
3174.61,0.004982
3176.55,0.004971
3178.5,0.005018
3180.45,0.005062
3182.4,0.004997
3184.36,0.004936
3186.32,0.004949
3188.27,0.004922
3190.24,0.004957
3192.2,0.004984
3194.17,0.004943
3196.14,0.005028
3198.11,0.005064
3200.08,0.005033
3202.06,0.005007
3204.04,0.005054
3206.02,0.005076
3208.0,0.005012
3209.99,0.004959
3211.98,0.004977
3213.97,0.004968
3215.96,0.00504
3217.96,0.005116
3219.96,0.005116
3221.96,0.005101
3223.96,0.005054
3225.97,0.004998
3227.98,0.004991
3229.99,0.005029
3232.0,0.004977
3234.02,0.005008
3236.04,0.005028
3238.06,0.005007
3240.08,0.004959
3242.11,0.004925
3244.14,0.005017
3246.17,0.005122
3248.2,0.005106
3250.24,0.005122
3252.28,0.00516
3254.32,0.005147
3256.37,0.005104
3258.41,0.005067
3260.46,0.005069
3262.51,0.005133
3264.57,0.005191
3266.63,0.005184
3268.69,0.005192
3270.75,0.005178
3272.81,0.005162
3274.88,0.005219
3276.95,0.005199
3279.02,0.005169
3281.1,0.005253
3283.18,0.005329
3285.26,0.005266
3287.34,0.005174
3289.43,0.005177
3291.51,0.005251
3293.61,0.00518
3295.7,0.005171
3297.8,0.00525
3299.9,0.005209
3302.0,0.00512
3304.1,0.005239
3306.21,0.005319
3308.32,0.005283
3310.43,0.005279
3312.55,0.005268
3314.66,0.00525
3316.79,0.005297
3318.91,0.005304
3321.03,0.005278
3323.16,0.005304
3325.29,0.005253
3327.43,0.005238
3329.57,0.005219
3331.71,0.005237
3333.85,0.005242
3335.99,0.005229
3338.14,0.00521
3340.29,0.005172
3342.45,0.005234
3344.6,0.005312
3346.76,0.005256
3348.92,0.005211
3351.09,0.00528
3353.26,0.005321
3355.43,0.005178
3357.6,0.005109
3359.78,0.00518
3361.96,0.005266
3364.14,0.005327
3366.32,0.005301
3368.51,0.005251
3370.7,0.00519
3372.89,0.005229
3375.09,0.005299
3377.29,0.005276
3379.49,0.005239
3381.69,0.005207
3383.9,0.005222
3386.11,0.005298
3388.32,0.005328
3390.54,0.005305
3392.76,0.005275
3394.98,0.00527
3397.21,0.005293
3399.43,0.0053
3401.66,0.005283
3403.9,0.005289
3406.13,0.005268
3408.37,0.005255
3410.61,0.005288
3412.86,0.005327
3415.11,0.005284
3417.36,0.005236
3419.61,0.005286
3421.87,0.005243
3424.13,0.005197
3426.39,0.005329
3428.66,0.005394
3430.93,0.005344
3433.2,0.005266
3435.48,0.005222
3437.76,0.005221
3440.04,0.005205
3442.32,0.005204
3444.61,0.005286
3446.9,0.005298
3449.19,0.005233
3451.49,0.005201
3453.79,0.005204
3456.09,0.005257
3458.4,0.005278
3460.7,0.005262
3463.02,0.005239
3465.33,0.005227
3467.65,0.005245
3469.97,0.005272
3472.29,0.005228
3474.62,0.005196
3476.95,0.005189
3479.29,0.005225
3481.62,0.005277
3483.96,0.005355
3486.3,0.005334
3488.65,0.005256
3491.0,0.005227
3493.35,0.005215
3495.71,0.005236
3498.07,0.005305
3500.43,0.005241
3502.79,0.005206
3505.16,0.005264
3507.53,0.005332
3509.91,0.005314
3512.29,0.005305
3514.67,0.005341
3517.05,0.005329
3519.44,0.005285
3521.83,0.0053
3524.23,0.005304
3526.62,0.005287
3529.02,0.00531
3531.43,0.005338
3533.83,0.005336
3536.24,0.005298
3538.66,0.005263
3541.08,0.005246
3543.5,0.005241
3545.92,0.005278
3548.35,0.005337
3550.78,0.005331
3553.21,0.005319
3555.65,0.005289
3558.09,0.005253
3560.53,0.005262
3562.98,0.005297
3565.43,0.005327
3567.88,0.005293
3570.34,0.005282
3572.8,0.005338
3575.27,0.005338
3577.73,0.005358
3580.2,0.005332
3582.68,0.005276
3585.16,0.005299
3587.64,0.005382
3590.12,0.005439
3592.61,0.005406
3595.1,0.00541
3597.6,0.005463
3600.09,0.005409
3602.6,0.005369
3605.1,0.005391
3607.61,0.005323
3610.12,0.005284
3612.64,0.00533
3615.16,0.00534
3617.68,0.005367
3620.21,0.005391
3622.74,0.005382
3625.27,0.005418
3627.81,0.005418
3630.35,0.005343
3632.89,0.005292
3635.44,0.005343
3637.99,0.005394
3640.54,0.005352
3643.1,0.005385
3645.66,0.005439
3648.23,0.005419
3650.8,0.005421
3653.37,0.005404
3655.95,0.005357
3658.53,0.00537
3661.11,0.005427
3663.7,0.005425
3666.29,0.00541
3668.89,0.005449
3671.48,0.005454
3674.09,0.005467
3676.69,0.005496
3679.3,0.005466
3681.91,0.005456
3684.53,0.005489
3687.15,0.005478
3689.78,0.005496
3692.4,0.005456
3695.04,0.005464
3697.67,0.005542
3700.31,0.005501
3702.95,0.005484
3705.6,0.00549
3708.25,0.005438
3710.91,0.005479
3713.56,0.005477
3716.23,0.005479
3718.89,0.005524
3721.56,0.005558
3724.23,0.005563
3726.91,0.005555
3729.59,0.005536
3732.28,0.005511
3734.97,0.005517
3737.66,0.005548
3740.36,0.005625
3743.06,0.005634
3745.76,0.005577
3748.47,0.005581
3751.18,0.005652
3753.9,0.005659
3756.62,0.005615
3759.34,0.005619
3762.07,0.005631
3764.8,0.005652
3767.54,0.005666
3770.28,0.005678
3773.02,0.005724
3775.77,0.00574
3778.52,0.005716
3781.28,0.005668
3784.04,0.005663
3786.8,0.005691
3789.57,0.005699
3792.34,0.005687
3795.12,0.005719
3797.9,0.005771
3800.69,0.005753
3803.47,0.005701
3806.27,0.005718
3809.06,0.005713
3811.86,0.005733
3814.67,0.005791
3817.48,0.005783
3820.29,0.005783
3823.11,0.005761
3825.93,0.005735
3828.76,0.005764
3831.59,0.005798
3834.42,0.005811
3837.26,0.005847
3840.1,0.00583
3842.95,0.005832
3845.8,0.005832
3848.65,0.005835
3851.51,0.005827
3854.38,0.005786
3857.24,0.005783
3860.12,0.005808
3862.99,0.005831
3865.87,0.005859
3868.76,0.0059
3871.65,0.005918
3874.54,0.005891
3877.44,0.005875
3880.34,0.005856
3883.25,0.005859
3886.16,0.005918
