Database of Origin,University of Winnipeg Spectrophotometer Facility
Sample Description,8. Sulfates: RELAB + Nicolet spectra / Spectra all made consistently merged: Jan. / 10 / 2005
Date Added,2016-07-15 22:05:54.825723

Data ID,RPN_SUL_14          
Sample ID,SPT104
Mineral Name,ferric sulfate (syn)
Grain Size,unsorted
Viewing Geometry,30 / 0 | 30
Resolution,5 / 1.3-129
Material Class,Sulfate

Wavelength
305.0,0.017444
310.0,0.016333
315.0,0.015978
320.0,0.01601
325.0,0.016099
330.0,0.015751
335.0,0.015474
340.0,0.015345
345.0,0.015129
350.0,0.014766
355.0,0.0145
360.0,0.01428
365.0,0.014494
370.0,0.014869
375.0,0.016222
380.0,0.018407
385.0,0.022403
390.0,0.027832
395.0,0.035157
400.0,0.045195
405.0,0.058136
410.0,0.070262
415.0,0.085372
420.0,0.095911
425.0,0.100491
430.0,0.105672
435.0,0.12061
440.0,0.14184
445.0,0.162287
450.0,0.17607
455.0,0.185451
460.0,0.19173
465.0,0.199439
470.0,0.208552
475.0,0.220387
480.0,0.234642
485.0,0.249565
490.0,0.265145
495.0,0.279431
500.0,0.291944
505.0,0.302808
510.0,0.310337
515.0,0.316208
520.0,0.319846
525.0,0.324061
530.0,0.32339
535.0,0.325526
540.0,0.326151
545.0,0.327408
550.0,0.327564
555.0,0.329847
560.0,0.331447
565.0,0.334445
570.0,0.337271
575.0,0.340982
580.0,0.345916
585.0,0.350685
590.0,0.355364
595.0,0.359577
600.0,0.364765
605.0,0.369692
610.0,0.373484
615.0,0.378229
620.0,0.381616
625.0,0.385631
630.0,0.38807
635.0,0.3906
640.0,0.391913
645.0,0.392594
650.0,0.394524
655.0,0.393915
660.0,0.393928
665.0,0.395221
670.0,0.393883
675.0,0.390768
680.0,0.390818
685.0,0.388136
690.0,0.384352
695.0,0.382232
700.0,0.376114
705.0,0.3717
710.0,0.3688
715.0,0.363453
720.0,0.359133
725.0,0.35323
730.0,0.344377
735.0,0.341778
740.0,0.335749
745.0,0.332526
750.0,0.327435
755.0,0.324449
760.0,0.319364
765.0,0.316848
770.0,0.312822
775.0,0.310195
780.0,0.306467
785.0,0.303845
790.0,0.302873
795.0,0.3006
800.0,0.305188
805.0,0.30311
810.0,0.301204
815.0,0.300653
820.0,0.300165
825.0,0.300412
830.0,0.300277
835.0,0.300071
840.0,0.301711
845.0,0.302356
850.0,0.304492
855.0,0.301918
860.0,0.303584
865.0,0.306291
870.0,0.310329
875.0,0.312635
880.0,0.317602
885.0,0.322623
890.0,0.3276
895.0,0.332829
900.0,0.338765
905.0,0.344746
910.0,0.35249
915.0,0.360471
920.0,0.368911
925.0,0.377256
930.0,0.386161
935.0,0.395623
940.0,0.406813
945.0,0.414524
950.0,0.427303
955.0,0.436454
960.0,0.445923
965.0,0.455255
970.0,0.465403
975.0,0.474034
980.0,0.486239
985.0,0.49529
990.0,0.503882
995.0,0.51413
1000.0,0.522703
1005.0,0.533609
1010.0,0.543335
1015.0,0.551438
1020.0,0.560303
1025.0,0.567785
1030.0,0.573671
1035.0,0.581977
1040.0,0.585003
1045.0,0.593286
1050.0,0.59747
1055.0,0.602865
1060.0,0.606288
1065.0,0.610963
1070.0,0.615573
1075.0,0.623468
1080.0,0.625216
1085.0,0.630944
1090.0,0.632208
1095.0,0.638051
1100.0,0.637964
1105.0,0.639408
1110.0,0.639877
1115.0,0.641458
1120.0,0.64274
1125.0,0.64222
1130.0,0.641608
1135.0,0.641977
1140.0,0.637579
1145.0,0.635665
1150.0,0.627192
1155.0,0.615788
1160.0,0.608327
1165.0,0.598305
1170.0,0.589066
1175.0,0.583777
1180.0,0.579599
1185.0,0.575688
1190.0,0.571469
1195.0,0.566126
1200.0,0.561764
1205.0,0.550128
1210.0,0.542862
1215.0,0.53746
1220.0,0.531215
1225.0,0.524729
1230.0,0.519391
1235.0,0.516432
1240.0,0.510655
1245.0,0.505872
1250.0,0.502383
1255.0,0.498853
1260.0,0.495637
1265.0,0.494069
1270.0,0.494814
1275.0,0.492999
1280.0,0.491916
1285.0,0.493286
1290.0,0.491857
1295.0,0.491132
1300.0,0.490232
1305.0,0.487772
1310.0,0.485947
1315.0,0.48369
1320.0,0.47892
1325.0,0.475054
1330.0,0.471315
1335.0,0.464523
1340.0,0.458135
1345.0,0.451663
1350.0,0.445358
1355.0,0.438649
1360.0,0.432984
1365.0,0.429954
1370.0,0.42517
1375.0,0.419731
1380.0,0.41348
1385.0,0.408787
1390.0,0.398867
1395.0,0.384741
1400.0,0.369592
1405.0,0.347334
1410.0,0.325434
1415.0,0.301489
1420.0,0.278786
1425.0,0.259459
1430.0,0.244531
1435.0,0.232895
1440.0,0.223984
1445.0,0.215543
1450.0,0.209364
1455.0,0.203579
1460.0,0.199108
1465.0,0.193797
1470.0,0.189162
1475.0,0.184153
1480.0,0.181127
1485.0,0.178044
1490.0,0.176878
1495.0,0.174704
1500.0,0.173843
1505.0,0.172265
1510.0,0.169216
1515.0,0.166676
1520.0,0.163824
1525.0,0.160214
1530.0,0.156657
1535.0,0.15343
1540.0,0.149293
1545.0,0.145666
1550.0,0.142309
1555.0,0.138913
1560.0,0.13569
1565.0,0.13503
1570.0,0.134534
1575.0,0.135025
1580.0,0.136332
1585.0,0.137167
1590.0,0.138937
1595.0,0.140232
1600.0,0.141554
1605.0,0.141933
1610.0,0.142824
1615.0,0.14268
1620.0,0.142512
1625.0,0.14166
1630.0,0.141697
1635.0,0.140467
1640.0,0.139673
1645.0,0.138793
1650.0,0.138847
1655.0,0.138078
1660.0,0.137145
1665.0,0.13594
1670.0,0.134468
1675.0,0.133255
1680.0,0.132198
1685.0,0.130989
1690.0,0.12932
1695.0,0.127731
1700.0,0.125969
1705.0,0.125271
1710.0,0.123136
1715.0,0.121559
1720.0,0.119877
1725.0,0.118761
1730.0,0.117054
1735.0,0.114929
1740.0,0.113694
1745.0,0.112158
1750.0,0.110582
1755.0,0.109173
1760.0,0.107892
1765.0,0.106262
1770.0,0.105644
1775.0,0.104178
1780.0,0.102931
1785.0,0.101411
1790.0,0.100935
1795.0,0.099941
1800.0,0.098974
1805.0,0.098141
1810.0,0.09733
1815.0,0.097413
1820.0,0.096357
1825.0,0.096607
1830.0,0.096054
1835.0,0.095684
1840.0,0.095009
1845.0,0.095181
1850.0,0.094508
1855.0,0.093733
1860.0,0.092803
1865.0,0.091591
1870.0,0.08979
1875.0,0.088908
1880.0,0.086672
1885.0,0.083188
1890.0,0.079494
1895.0,0.075042
1900.0,0.069512
1905.0,0.063258
1910.0,0.056844
1915.0,0.05106
1920.0,0.046891
1925.0,0.043187
1930.0,0.041107
1935.0,0.039833
1940.0,0.03925
1945.0,0.038359
1950.0,0.038206
1955.0,0.037504
1960.0,0.037368
1965.0,0.037013
1970.0,0.036543
1975.0,0.036051
1980.0,0.035482
1985.0,0.035013
1990.0,0.034426
1995.0,0.033772
2000.0,0.032924
2005.0,0.032234
2010.0,0.031436
2015.0,0.030743
2020.0,0.030423
2025.0,0.030169
2030.0,0.030178
2035.0,0.030036
2040.0,0.030307
2045.0,0.030506
2050.0,0.030803
2055.0,0.031027
2060.0,0.03152
2065.0,0.031819
2070.0,0.03176
2075.0,0.031641
2080.0,0.031496
2085.0,0.030971
2090.0,0.030207
2095.0,0.02962
2100.0,0.028647
2105.0,0.027658
2110.0,0.026748
2115.0,0.025985
2120.0,0.025433
2125.0,0.024982
2130.0,0.024792
2135.0,0.024497
2140.0,0.024629
2145.0,0.024765
2150.0,0.02492
2155.0,0.02536
2160.0,0.026035
2165.0,0.026294
2170.0,0.027583
2175.0,0.028536
2180.0,0.029815
2185.0,0.030747
2190.0,0.031986
2195.0,0.032926
2200.0,0.033914
2205.0,0.034587
2210.0,0.035586
2215.0,0.036105
2220.0,0.037022
2225.0,0.03747
2230.0,0.038193
2235.0,0.039082
2240.0,0.039674
2245.0,0.04005
2250.0,0.040834
2255.0,0.041451
2260.0,0.041999
2265.0,0.04227
2270.0,0.042709
2275.0,0.043055
2280.0,0.043457
2285.0,0.043733
2290.0,0.043893
2295.0,0.044021
2300.0,0.043918
2305.0,0.043493
2310.0,0.043193
2315.0,0.042962
2320.0,0.042468
2325.0,0.042389
2330.0,0.041962
2335.0,0.041457
2340.0,0.041063
2345.0,0.040335
2350.0,0.040016
2355.0,0.039347
2360.0,0.03834
2365.0,0.03837
2370.0,0.037462
2375.0,0.036898
2380.0,0.0364
2385.0,0.035633
2390.0,0.034929
2395.0,0.033997
2400.0,0.033245
2405.0,0.032843
2410.0,0.032155
2415.0,0.031231
2420.0,0.030348
2425.0,0.029665
2430.0,0.029203
2435.0,0.028512
2440.0,0.027765
2445.0,0.027313
2450.0,0.0269
2455.0,0.026237
2460.0,0.025742
2465.0,0.024758
2470.0,0.024287
2475.0,0.023845
2480.0,0.023628
2485.0,0.023025
2490.0,0.022692
2495.0,0.022056
2500.0,0.021843
2505.0,0.021568
2510.0,0.020952
2515.0,0.020717
2520.0,0.020511
2525.0,0.020015
2530.0,0.019823
2535.0,0.019605
2540.0,0.01944
2545.0,0.019221
2550.0,0.019089
2555.0,0.018904
2560.0,0.018676
2565.13,0.018556
2570.22,0.018473
2575.33,0.018289
2580.46,0.01828
2581.74,0.018148
2583.03,0.018034
2584.31,0.01801
2585.6,0.018071
2586.89,0.018005
2588.19,0.017883
2589.48,0.01782
2590.77,0.017846
2592.07,0.017909
2593.36,0.017898
2594.66,0.017768
2595.96,0.017683
2597.26,0.017788
2598.56,0.017833
2599.87,0.017816
2601.17,0.017697
2602.48,0.01762
2603.78,0.017597
2605.09,0.017424
2606.4,0.017389
2607.71,0.017491
2609.03,0.017495
2610.34,0.017455
2611.66,0.017418
2612.97,0.017402
2614.29,0.017344
2615.61,0.017309
2616.93,0.017191
2618.25,0.017122
2619.57,0.017184
2620.9,0.017082
2622.22,0.017034
2623.55,0.017021
2624.88,0.016978
2626.21,0.016937
2627.54,0.016795
2628.87,0.016797
2630.21,0.016737
2631.54,0.016662
2632.88,0.016725
2634.21,0.016693
2635.55,0.016543
2636.89,0.016439
2638.24,0.016423
2639.58,0.016426
2640.92,0.016366
2642.27,0.016266
2643.62,0.01619
2644.97,0.016141
2646.32,0.016092
2647.67,0.016066
2649.02,0.015984
2650.38,0.015862
2651.73,0.015781
2653.09,0.015767
2654.45,0.015779
2655.81,0.015716
2657.17,0.015513
2658.53,0.015423
2659.89,0.015425
2661.26,0.015299
2662.63,0.015262
2664.0,0.015259
2665.36,0.015077
2666.74,0.014938
2668.11,0.014942
2669.48,0.014832
2670.86,0.014643
2672.23,0.014577
2673.61,0.01455
2674.99,0.014491
2676.37,0.014446
2677.76,0.014316
2679.14,0.014208
2680.52,0.014063
2681.91,0.013904
2683.3,0.013888
2684.69,0.013816
2686.08,0.013658
2687.47,0.013476
2688.87,0.013356
2690.26,0.013324
2691.66,0.013263
2693.06,0.013045
2694.46,0.012898
2695.86,0.012821
2697.26,0.012723
2698.66,0.012646
2700.07,0.012503
2701.48,0.01234
2702.89,0.012117
2704.3,0.012002
2705.71,0.011918
2707.12,0.011766
2708.53,0.011649
2709.95,0.011485
2711.37,0.011247
2712.79,0.011059
2714.21,0.010878
2715.63,0.010683
2717.05,0.010594
2718.48,0.010493
2719.9,0.010235
2721.33,0.009998
2722.76,0.009838
2724.19,0.009587
2725.62,0.00937
2727.06,0.009307
2728.49,0.009066
2729.93,0.008729
2731.37,0.008589
2732.81,0.008515
2734.25,0.008305
2735.69,0.008016
2737.14,0.007781
2738.58,0.007631
2740.03,0.007465
2741.48,0.007199
2742.93,0.006977
2744.38,0.006893
2745.83,0.006675
2747.29,0.006511
2748.75,0.006392
2750.2,0.006213
2751.66,0.006064
2753.13,0.005994
2754.59,0.005942
2756.05,0.005832
2757.52,0.005756
2758.99,0.00571
2760.46,0.005525
2761.93,0.005334
2763.4,0.005281
2764.87,0.005264
2766.35,0.005219
2767.82,0.005134
2769.3,0.005025
2770.78,0.005016
2772.26,0.005009
2773.75,0.004945
2775.23,0.004834
2776.72,0.004709
2778.21,0.004711
2779.7,0.004781
2781.19,0.004767
2782.68,0.00467
2784.18,0.004619
2785.67,0.004568
2787.17,0.004515
2788.67,0.004498
2790.17,0.004496
2791.67,0.004469
2793.18,0.004468
2794.68,0.004486
2796.19,0.004496
2797.7,0.004426
2799.21,0.004375
2800.72,0.004391
2802.24,0.004286
2803.75,0.004225
2805.27,0.004267
2806.79,0.004259
2808.31,0.004201
2809.83,0.004171
2811.35,0.004209
2812.88,0.004198
2814.41,0.004152
2815.93,0.004145
2817.46,0.004166
2819.0,0.004163
2820.53,0.004146
2822.07,0.004157
2823.6,0.004131
2825.14,0.004102
2826.68,0.004102
2828.22,0.004105
2829.77,0.004102
2831.31,0.00412
2832.86,0.004082
2834.41,0.00399
2835.96,0.003974
2837.51,0.004004
2839.07,0.004017
2840.62,0.003987
2842.18,0.003992
2843.74,0.00401
2845.3,0.004016
2846.86,0.003998
2848.43,0.003916
2849.99,0.00391
2851.56,0.003938
2853.13,0.003932
2854.7,0.00391
2856.27,0.003902
2857.85,0.003975
2859.42,0.004014
2861.0,0.003985
2862.58,0.003988
2864.16,0.004028
2865.75,0.004006
2867.33,0.003962
2868.92,0.003938
2870.51,0.003927
2872.1,0.003937
2873.69,0.003946
2875.28,0.003946
2876.88,0.003886
2878.48,0.003846
2880.07,0.003874
2881.68,0.003885
2883.28,0.003841
2884.88,0.003832
2886.49,0.003869
2888.1,0.003835
2889.71,0.003778
2891.32,0.003822
2892.93,0.003895
2894.55,0.00388
2896.16,0.003811
2897.78,0.003823
2899.4,0.003839
2901.03,0.003807
2902.65,0.003815
2904.28,0.00381
2905.91,0.003842
2907.54,0.003857
2909.17,0.003831
2910.8,0.003827
2912.44,0.003812
2914.07,0.003774
2915.71,0.003792
2917.35,0.003839
2918.99,0.003861
2920.64,0.003915
2922.29,0.00393
2923.93,0.00388
2925.58,0.003887
2927.24,0.003888
2928.89,0.003864
2930.55,0.003853
2932.2,0.003846
2933.86,0.003857
2935.52,0.00385
2937.19,0.003791
2938.85,0.003753
2940.52,0.003804
2942.19,0.003835
2943.86,0.003805
2945.53,0.003826
2947.21,0.003817
2948.88,0.00384
2950.56,0.003854
2952.24,0.00385
2953.92,0.003919
2955.61,0.003899
2957.29,0.003815
2958.98,0.003774
2960.67,0.003786
2962.36,0.003797
2964.06,0.003773
2965.75,0.003786
2967.45,0.003797
2969.15,0.003816
2970.85,0.003806
2972.55,0.00378
2974.26,0.003816
2975.97,0.00385
2977.68,0.003858
2979.39,0.003829
2981.1,0.00379
2982.82,0.003793
2984.53,0.003812
2986.25,0.003818
2987.97,0.003848
2989.7,0.003846
2991.42,0.003857
2993.15,0.003814
2994.88,0.003773
2996.61,0.003781
2998.34,0.003763
3000.08,0.003798
3001.82,0.003837
3003.55,0.003872
3005.3,0.003864
3007.04,0.003851
3008.78,0.003788
3010.53,0.00382
3012.28,0.003843
3014.03,0.003853
3015.79,0.003902
3017.54,0.003923
3019.3,0.003917
3021.06,0.003902
3022.82,0.003918
3024.58,0.003952
3026.35,0.003984
3028.12,0.003985
3029.89,0.004019
3031.66,0.004061
3033.43,0.004055
3035.21,0.004027
3036.99,0.004043
3038.77,0.004108
3040.55,0.004132
3042.33,0.004131
3044.12,0.004125
3045.91,0.004163
3047.7,0.004173
3049.49,0.004208
3051.29,0.004213
3053.08,0.004204
3054.88,0.004273
3056.68,0.004292
3058.49,0.004311
3060.29,0.004353
3062.1,0.004412
3063.91,0.004421
3065.72,0.004427
3067.54,0.004451
3069.35,0.004453
3071.17,0.004447
3072.99,0.004466
3074.81,0.004532
3076.64,0.004634
3078.47,0.004634
3080.29,0.00461
3082.13,0.004629
3083.96,0.00464
3085.79,0.004649
3087.63,0.004652
3089.47,0.004709
3091.31,0.004759
3093.16,0.00475
3095.01,0.004753
3096.85,0.004742
3098.71,0.004768
3100.56,0.004841
3102.41,0.004815
3104.27,0.004841
3106.13,0.004886
3107.99,0.00486
3109.86,0.004858
3111.73,0.004886
3113.59,0.004896
3115.47,0.004911
3117.34,0.004949
3119.21,0.004965
3121.09,0.004993
3122.97,0.005026
3124.86,0.005018
3126.74,0.005036
3128.63,0.005044
3130.52,0.005033
3132.41,0.005036
3134.3,0.005028
3136.2,0.005058
3138.1,0.005091
3140.0,0.005078
3141.9,0.005046
3143.81,0.005053
3145.71,0.005099
3147.62,0.005116
3149.54,0.005098
3151.45,0.005091
3153.37,0.005098
3155.29,0.005099
3157.21,0.005109
3159.13,0.005132
3161.06,0.005151
3162.99,0.005121
3164.92,0.005117
3166.85,0.005147
3168.79,0.005164
3170.72,0.005151
3172.67,0.00511
3174.61,0.005111
3176.55,0.005127
3178.5,0.005149
3180.45,0.005157
3182.4,0.005159
3184.36,0.005153
3186.32,0.005132
3188.27,0.005123
3190.24,0.005141
3192.2,0.005132
3194.17,0.005094
3196.14,0.005087
3198.11,0.005125
3200.08,0.005158
3202.06,0.005165
3204.04,0.005146
3206.02,0.005138
3208.0,0.005123
3209.99,0.005115
3211.98,0.00509
3213.97,0.005093
3215.96,0.005096
3217.96,0.005104
3219.96,0.00514
3221.96,0.00515
3223.96,0.005122
3225.97,0.005114
3227.98,0.005127
3229.99,0.005149
3232.0,0.005176
3234.02,0.005196
3236.04,0.005196
3238.06,0.0052
3240.08,0.005233
3242.11,0.005232
3244.14,0.005209
3246.17,0.005209
3248.2,0.005216
3250.24,0.005231
3252.28,0.005245
3254.32,0.005281
3256.37,0.005296
3258.41,0.005262
3260.46,0.005277
3262.51,0.005331
3264.57,0.005348
3266.63,0.005342
3268.69,0.005342
3270.75,0.005368
3272.81,0.005359
3274.88,0.005332
3276.95,0.00531
3279.02,0.005336
3281.1,0.005352
3283.18,0.005366
3285.26,0.005371
3287.34,0.005353
3289.43,0.005362
3291.51,0.005373
3293.61,0.005409
3295.7,0.005418
3297.8,0.005385
3299.9,0.005378
3302.0,0.005389
3304.1,0.005379
3306.21,0.005387
3308.32,0.005409
3310.43,0.005439
3312.55,0.005451
3314.66,0.005415
3316.79,0.005415
3318.91,0.005451
3321.03,0.005465
3323.16,0.005469
3325.29,0.005435
3327.43,0.00542
3329.57,0.005424
3331.71,0.005439
3333.85,0.005453
3335.99,0.005428
3338.14,0.005409
3340.29,0.005418
3342.45,0.005427
3344.6,0.0054
3346.76,0.005412
3348.92,0.005411
3351.09,0.005408
3353.26,0.005426
3355.43,0.005443
3357.6,0.005471
3359.78,0.005487
3361.96,0.00549
3364.14,0.005485
3366.32,0.005481
3368.51,0.005474
3370.7,0.005441
3372.89,0.005448
3375.09,0.005477
3377.29,0.005452
3379.49,0.005459
3381.69,0.005479
3383.9,0.005487
3386.11,0.005479
3388.32,0.005444
3390.54,0.005454
3392.76,0.005488
3394.98,0.005484
3397.21,0.005479
3399.43,0.005472
3401.66,0.005448
3403.9,0.00542
3406.13,0.005412
3408.37,0.005433
3410.61,0.005467
3412.86,0.005479
3415.11,0.005472
3417.36,0.005468
3419.61,0.005477
3421.87,0.005489
3424.13,0.005462
3426.39,0.005437
3428.66,0.005433
3430.93,0.005462
3433.2,0.005465
3435.48,0.005461
3437.76,0.005459
3440.04,0.005461
3442.32,0.005481
3444.61,0.005457
3446.9,0.005448
3449.19,0.005457
3451.49,0.00545
3453.79,0.005436
3456.09,0.005423
3458.4,0.005428
3460.7,0.005415
3463.02,0.00539
3465.33,0.005396
3467.65,0.005411
3469.97,0.005433
3472.29,0.005448
3474.62,0.005446
3476.95,0.005437
3479.29,0.005431
3481.62,0.005429
3483.96,0.005447
3486.3,0.005485
3488.65,0.005492
3491.0,0.005454
3493.35,0.005428
3495.71,0.005404
3498.07,0.005407
3500.43,0.005443
3502.79,0.005467
3505.16,0.005463
3507.53,0.005475
3509.91,0.005509
3512.29,0.005513
3514.67,0.005485
3517.05,0.005461
3519.44,0.005496
3521.83,0.005505
3524.23,0.005489
3526.62,0.005514
3529.02,0.005504
3531.43,0.005483
3533.83,0.005494
3536.24,0.005519
3538.66,0.005552
3541.08,0.005545
3543.5,0.005528
3545.92,0.00551
3548.35,0.005497
3550.78,0.00552
3553.21,0.005522
3555.65,0.005515
3558.09,0.005521
3560.53,0.005532
3562.98,0.00553
3565.43,0.005545
3567.88,0.005569
3570.34,0.005563
3572.8,0.005547
3575.27,0.00551
3577.73,0.005502
3580.2,0.005534
3582.68,0.005543
3585.16,0.005539
3587.64,0.005577
3590.12,0.005606
3592.61,0.005585
3595.1,0.005551
3597.6,0.005556
3600.09,0.005562
3602.6,0.005559
3605.1,0.005557
3607.61,0.005567
3610.12,0.005554
3612.64,0.005547
3615.16,0.005566
3617.68,0.005573
3620.21,0.005566
3622.74,0.005587
3625.27,0.005606
3627.81,0.005607
3630.35,0.005613
3632.89,0.00564
3635.44,0.00564
3637.99,0.005616
3640.54,0.005602
3643.1,0.005613
3645.66,0.005619
3648.23,0.0056
3650.8,0.00562
3653.37,0.00563
3655.95,0.005626
3658.53,0.005634
3661.11,0.005674
3663.7,0.005676
3666.29,0.005662
3668.89,0.005659
3671.48,0.005655
3674.09,0.005656
3676.69,0.005653
3679.3,0.005654
3681.91,0.005667
3684.53,0.005679
3687.15,0.0057
3689.78,0.005705
3692.4,0.005712
3695.04,0.00571
3697.67,0.005697
3700.31,0.005702
3702.95,0.005731
3705.6,0.005763
3708.25,0.005754
3710.91,0.005727
3713.56,0.005735
3716.23,0.00574
3718.89,0.005736
3721.56,0.005731
3724.23,0.005729
3726.91,0.005778
3729.59,0.005811
3732.28,0.005788
3734.97,0.005775
3737.66,0.005771
3740.36,0.005767
3743.06,0.00578
3745.76,0.005792
3748.47,0.005809
3751.18,0.005826
3753.9,0.005837
3756.62,0.005812
3759.34,0.005811
3762.07,0.005832
3764.8,0.00584
3767.54,0.005843
3770.28,0.005838
3773.02,0.005866
3775.77,0.005893
3778.52,0.00589
3781.28,0.005886
3784.04,0.005896
3786.8,0.005881
3789.57,0.00589
3792.34,0.005915
3795.12,0.005925
3797.9,0.005909
3800.69,0.005901
3803.47,0.005921
3806.27,0.005948
3809.06,0.00596
3811.86,0.005966
3814.67,0.005976
3817.48,0.00599
3820.29,0.005998
3823.11,0.005988
3825.93,0.00596
3828.76,0.005958
3831.59,0.005998
3834.42,0.005998
3837.26,0.006001
3840.1,0.006008
3842.95,0.006005
3845.8,0.006017
3848.65,0.006044
3851.51,0.006066
3854.38,0.006079
3857.24,0.006093
3860.12,0.006113
3862.99,0.006112
3865.87,0.006113
3868.76,0.00612
3871.65,0.006108
3874.54,0.006092
3877.44,0.006105
3880.34,0.00612
3883.25,0.006144
3886.16,0.00616
