Database of Origin,University of Winnipeg Spectrophotometer Facility
Sample Description,8. Sulfates: RELAB + Nicolet spectra / Spectra all made consistently merged: Jan. / 10 / 2005
Date Added,2016-07-15 22:05:54.720442

Data ID,RPN_SUL_06          
Sample ID,SPT101
Mineral Name,Mascagnite
Grain Size,45-90
Viewing Geometry,30 / 0 | 30
Resolution,5 / 1.3-129
Material Class,Sulfate

Wavelength
305.0,0.044644
310.0,0.041918
315.0,0.041871
320.0,0.042088
325.0,0.044021
330.0,0.046738
335.0,0.051109
340.0,0.056828
345.0,0.064609
350.0,0.074271
355.0,0.085604
360.0,0.100344
365.0,0.116969
370.0,0.136414
375.0,0.158068
380.0,0.182358
385.0,0.207675
390.0,0.231604
395.0,0.255911
400.0,0.276665
405.0,0.293762
410.0,0.314064
415.0,0.334724
420.0,0.352585
425.0,0.364426
430.0,0.372094
435.0,0.377958
440.0,0.383505
445.0,0.387314
450.0,0.389984
455.0,0.39155
460.0,0.39226
465.0,0.397577
470.0,0.40581
475.0,0.417836
480.0,0.431477
485.0,0.445756
490.0,0.460653
495.0,0.475623
500.0,0.487637
505.0,0.499988
510.0,0.510508
515.0,0.5223
520.0,0.53027
525.0,0.537459
530.0,0.545331
535.0,0.551418
540.0,0.556946
545.0,0.565574
550.0,0.568942
555.0,0.574961
560.0,0.579677
565.0,0.587554
570.0,0.592677
575.0,0.597183
580.0,0.604122
585.0,0.610952
590.0,0.614057
595.0,0.619946
600.0,0.625866
605.0,0.62952
610.0,0.633397
615.0,0.639932
620.0,0.645448
625.0,0.651495
630.0,0.655147
635.0,0.662158
640.0,0.666297
645.0,0.670463
650.0,0.675893
655.0,0.679643
660.0,0.685352
665.0,0.690226
670.0,0.694623
675.0,0.701868
680.0,0.705311
685.0,0.709963
690.0,0.714206
695.0,0.716299
700.0,0.719498
705.0,0.724511
710.0,0.728744
715.0,0.731114
720.0,0.735735
725.0,0.736214
730.0,0.736654
735.0,0.740883
740.0,0.742403
745.0,0.746653
750.0,0.747535
755.0,0.74935
760.0,0.750979
765.0,0.752361
770.0,0.755015
775.0,0.755453
780.0,0.756424
785.0,0.757541
790.0,0.75998
795.0,0.759385
800.0,0.759274
805.0,0.760073
810.0,0.760565
815.0,0.761275
820.0,0.762438
825.0,0.763594
830.0,0.7643
835.0,0.765348
840.0,0.765846
845.0,0.76723
850.0,0.767552
855.0,0.768629
860.0,0.769096
865.0,0.770676
870.0,0.771482
875.0,0.772948
880.0,0.773136
885.0,0.776323
890.0,0.775382
895.0,0.778225
900.0,0.780248
905.0,0.784939
910.0,0.780995
915.0,0.784263
920.0,0.785969
925.0,0.789447
930.0,0.790743
935.0,0.79439
940.0,0.794836
945.0,0.798083
950.0,0.800539
955.0,0.803241
960.0,0.806355
965.0,0.807062
970.0,0.811144
975.0,0.814288
980.0,0.813286
985.0,0.814686
990.0,0.815139
995.0,0.816353
1000.0,0.816187
1005.0,0.816393
1010.0,0.818053
1015.0,0.815838
1020.0,0.811178
1025.0,0.811062
1030.0,0.807064
1035.0,0.803195
1040.0,0.799015
1045.0,0.792972
1050.0,0.792073
1055.0,0.787846
1060.0,0.789064
1065.0,0.788085
1070.0,0.790017
1075.0,0.79107
1080.0,0.795497
1085.0,0.800172
1090.0,0.80376
1095.0,0.805888
1100.0,0.811102
1105.0,0.813496
1110.0,0.815225
1115.0,0.819941
1120.0,0.820991
1125.0,0.825291
1130.0,0.826225
1135.0,0.826155
1140.0,0.82751
1145.0,0.827402
1150.0,0.827338
1155.0,0.826847
1160.0,0.826249
1165.0,0.823281
1170.0,0.821637
1175.0,0.822476
1180.0,0.816814
1185.0,0.815465
1190.0,0.810364
1195.0,0.807934
1200.0,0.801798
1205.0,0.789808
1210.0,0.772005
1215.0,0.764373
1220.0,0.748085
1225.0,0.737102
1230.0,0.722464
1235.0,0.715296
1240.0,0.705423
1245.0,0.69859
1250.0,0.691485
1255.0,0.679147
1260.0,0.670246
1265.0,0.667181
1270.0,0.664809
1275.0,0.662313
1280.0,0.664923
1285.0,0.662169
1290.0,0.666051
1295.0,0.666138
1300.0,0.669591
1305.0,0.668355
1310.0,0.672546
1315.0,0.674528
1320.0,0.678277
1325.0,0.682635
1330.0,0.686431
1335.0,0.690083
1340.0,0.692308
1345.0,0.696635
1350.0,0.700163
1355.0,0.699156
1360.0,0.702889
1365.0,0.705339
1370.0,0.706976
1375.0,0.712229
1380.0,0.708358
1385.0,0.715466
1390.0,0.717445
1395.0,0.711155
1400.0,0.713834
1405.0,0.714936
1410.0,0.714262
1415.0,0.71319
1420.0,0.708522
1425.0,0.704889
1430.0,0.697398
1435.0,0.693688
1440.0,0.686422
1445.0,0.677326
1450.0,0.666358
1455.0,0.657498
1460.0,0.646342
1465.0,0.634539
1470.0,0.623403
1475.0,0.609565
1480.0,0.597438
1485.0,0.580827
1490.0,0.566939
1495.0,0.5504
1500.0,0.535944
1505.0,0.518562
1510.0,0.503406
1515.0,0.480256
1520.0,0.458953
1525.0,0.437384
1530.0,0.415009
1535.0,0.394779
1540.0,0.375874
1545.0,0.356153
1550.0,0.339337
1555.0,0.321494
1560.0,0.312266
1565.0,0.300221
1570.0,0.29442
1575.0,0.294077
1580.0,0.295987
1585.0,0.300096
1590.0,0.310284
1595.0,0.31786
1600.0,0.32831
1605.0,0.339747
1610.0,0.344783
1615.0,0.353324
1620.0,0.361218
1625.0,0.364611
1630.0,0.369429
1635.0,0.373024
1640.0,0.373762
1645.0,0.378252
1650.0,0.383294
1655.0,0.389366
1660.0,0.397916
1665.0,0.406467
1670.0,0.415028
1675.0,0.421656
1680.0,0.428298
1685.0,0.433959
1690.0,0.440143
1695.0,0.445346
1700.0,0.450833
1705.0,0.454611
1710.0,0.458282
1715.0,0.46034
1720.0,0.465573
1725.0,0.466478
1730.0,0.469568
1735.0,0.467388
1740.0,0.470809
1745.0,0.471022
1750.0,0.47059
1755.0,0.471719
1760.0,0.472888
1765.0,0.471253
1770.0,0.47017
1775.0,0.469728
1780.0,0.468008
1785.0,0.4676
1790.0,0.465659
1795.0,0.463667
1800.0,0.461544
1805.0,0.460203
1810.0,0.457327
1815.0,0.45595
1820.0,0.453465
1825.0,0.449153
1830.0,0.44699
1835.0,0.442193
1840.0,0.438855
1845.0,0.434431
1850.0,0.432398
1855.0,0.424661
1860.0,0.420314
1865.0,0.413865
1870.0,0.40549
1875.0,0.401401
1880.0,0.393408
1885.0,0.383889
1890.0,0.376071
1895.0,0.366981
1900.0,0.35663
1905.0,0.347021
1910.0,0.337815
1915.0,0.328279
1920.0,0.31677
1925.0,0.306818
1930.0,0.295397
1935.0,0.286097
1940.0,0.274879
1945.0,0.262253
1950.0,0.250465
1955.0,0.237114
1960.0,0.224103
1965.0,0.209938
1970.0,0.194431
1975.0,0.181249
1980.0,0.164716
1985.0,0.148038
1990.0,0.131759
1995.0,0.115579
2000.0,0.100463
2005.0,0.088449
2010.0,0.079566
2015.0,0.07322
2020.0,0.069112
2025.0,0.066058
2030.0,0.063525
2035.0,0.061831
2040.0,0.060122
2045.0,0.058704
2050.0,0.058152
2055.0,0.057784
2060.0,0.057534
2065.0,0.057204
2070.0,0.056226
2075.0,0.055146
2080.0,0.053033
2085.0,0.051
2090.0,0.048405
2095.0,0.044368
2100.0,0.042772
2105.0,0.039792
2110.0,0.037206
2115.0,0.034471
2120.0,0.032391
2125.0,0.030727
2130.0,0.029345
2135.0,0.028924
2140.0,0.0287
2145.0,0.028564
2150.0,0.028675
2155.0,0.029446
2160.0,0.030092
2165.0,0.031279
2170.0,0.032716
2175.0,0.03497
2180.0,0.037766
2185.0,0.040448
2190.0,0.043784
2195.0,0.046875
2200.0,0.05092
2205.0,0.05412
2210.0,0.058048
2215.0,0.061033
2220.0,0.064849
2225.0,0.068218
2230.0,0.071579
2235.0,0.075726
2240.0,0.078386
2245.0,0.082689
2250.0,0.086237
2255.0,0.09067
2260.0,0.094995
2265.0,0.099336
2270.0,0.103439
2275.0,0.107692
2280.0,0.112011
2285.0,0.116459
2290.0,0.120599
2295.0,0.125237
2300.0,0.129336
2305.0,0.133174
2310.0,0.137013
2315.0,0.140134
2320.0,0.143515
2325.0,0.147888
2330.0,0.151656
2335.0,0.155474
2340.0,0.16106
2345.0,0.166349
2350.0,0.171365
2355.0,0.177047
2360.0,0.182632
2365.0,0.188082
2370.0,0.192711
2375.0,0.197033
2380.0,0.202814
2385.0,0.207682
2390.0,0.21414
2395.0,0.219142
2400.0,0.224928
2405.0,0.23145
2410.0,0.236714
2415.0,0.241568
2420.0,0.247921
2425.0,0.253069
2430.0,0.255947
2435.0,0.260648
2440.0,0.264204
2445.0,0.265895
2450.0,0.267287
2455.0,0.268233
2460.0,0.267918
2465.0,0.26719
2470.0,0.267616
2475.0,0.265505
2480.0,0.264406
2485.0,0.261182
2490.0,0.25938
2495.0,0.255836
2500.0,0.253109
2505.0,0.249441
2510.0,0.245946
2515.0,0.2433
2520.0,0.241158
2525.0,0.23751
2530.0,0.234109
2535.0,0.230756
2540.0,0.226709
2545.0,0.221228
2550.0,0.218386
2555.0,0.215747
2560.0,0.211912
2565.13,0.208857
2570.22,0.204635
2575.33,0.200913
2580.46,0.196657
2581.74,0.194993
2583.03,0.194432
2584.31,0.19381
2585.6,0.192878
2586.89,0.192286
2588.19,0.191444
2589.48,0.190582
2590.77,0.189332
2592.07,0.187873
2593.36,0.186626
2594.66,0.184513
2595.96,0.183188
2597.26,0.184105
2598.56,0.183888
2599.87,0.182306
2601.17,0.180512
2602.48,0.179499
2603.78,0.178747
2605.09,0.177212
2606.4,0.175994
2607.71,0.175882
2609.03,0.17513
2610.34,0.173499
2611.66,0.172452
2612.97,0.171313
2614.29,0.170295
2615.61,0.169389
2616.93,0.168035
2618.25,0.166847
2619.57,0.165884
2620.9,0.164448
2622.22,0.163878
2623.55,0.163421
2624.88,0.161984
2626.21,0.160591
2627.54,0.159354
2628.87,0.158981
2630.21,0.157699
2631.54,0.15608
2632.88,0.155981
2634.21,0.154971
2635.55,0.153453
2636.89,0.152418
2638.24,0.150796
2639.58,0.149528
2640.92,0.148853
2642.27,0.147525
2643.62,0.145681
2644.97,0.144823
2646.32,0.144092
2647.67,0.143041
2649.02,0.141781
2650.38,0.140677
2651.73,0.139638
2653.09,0.138196
2654.45,0.13743
2655.81,0.136708
2657.17,0.135202
2658.53,0.133629
2659.89,0.131964
2661.26,0.130951
2662.63,0.130067
2664.0,0.128883
2665.36,0.127144
2666.74,0.126091
2668.11,0.12541
2669.48,0.124234
2670.86,0.122356
2672.23,0.121214
2673.61,0.120602
2674.99,0.118835
2676.37,0.117181
2677.76,0.116077
2679.14,0.115237
2680.52,0.114149
2681.91,0.113045
2683.3,0.111508
2684.69,0.10975
2686.08,0.108569
2687.47,0.107397
2688.87,0.105679
2690.26,0.104311
2691.66,0.10341
2693.06,0.102309
2694.46,0.100806
2695.86,0.099229
2697.26,0.097993
2698.66,0.097063
2700.07,0.095795
2701.48,0.094196
2702.89,0.092828
2704.3,0.091891
2705.71,0.090668
2707.12,0.089431
2708.53,0.088465
2709.95,0.087176
2711.37,0.085688
2712.79,0.084403
2714.21,0.08315
2715.63,0.081812
2717.05,0.080631
2718.48,0.079276
2719.9,0.078035
2721.33,0.076967
2722.76,0.075965
2724.19,0.074736
2725.62,0.073374
2727.06,0.072415
2728.49,0.071175
2729.93,0.070109
2731.37,0.069065
2732.81,0.067867
2734.25,0.066664
2735.69,0.065501
2737.14,0.064417
2738.58,0.06375
2740.03,0.062702
2741.48,0.061386
2742.93,0.06051
2744.38,0.059727
2745.83,0.058841
2747.29,0.057959
2748.75,0.056959
2750.2,0.055695
2751.66,0.054594
2753.13,0.053971
2754.59,0.053339
2756.05,0.052508
2757.52,0.051947
2758.99,0.051219
2760.46,0.050142
2761.93,0.049534
2763.4,0.048828
2764.87,0.048007
2766.35,0.047578
2767.82,0.046957
2769.3,0.046281
2770.78,0.045771
2772.26,0.044919
2773.75,0.04401
2775.23,0.043361
2776.72,0.042629
2778.21,0.041994
2779.7,0.041725
2781.19,0.041462
2782.68,0.040607
2784.18,0.039748
2785.67,0.039057
2787.17,0.038908
2788.67,0.038737
2790.17,0.038263
2791.67,0.037798
2793.18,0.03742
2794.68,0.037116
2796.19,0.036534
2797.7,0.035825
2799.21,0.03548
2800.72,0.035121
2802.24,0.034701
2803.75,0.034159
2805.27,0.033534
2806.79,0.033153
2808.31,0.032885
2809.83,0.032419
2811.35,0.032225
2812.88,0.032178
2814.41,0.031747
2815.93,0.031315
2817.46,0.031109
2819.0,0.030635
2820.53,0.029976
2822.07,0.029663
2823.6,0.029794
2825.14,0.029472
2826.68,0.028919
2828.22,0.028574
2829.77,0.028346
2831.31,0.028016
2832.86,0.027726
2834.41,0.027441
2835.96,0.027246
2837.51,0.027069
2839.07,0.026893
2840.62,0.02649
2842.18,0.026268
2843.74,0.025979
2845.3,0.025667
2846.86,0.025411
2848.43,0.025252
2849.99,0.024877
2851.56,0.024531
2853.13,0.024415
2854.7,0.024336
2856.27,0.024204
2857.85,0.024092
2859.42,0.02366
2861.0,0.023443
2862.58,0.023265
2864.16,0.022964
2865.75,0.022839
2867.33,0.022511
2868.92,0.021972
2870.51,0.021846
2872.1,0.021857
2873.69,0.021753
2875.28,0.021761
2876.88,0.021626
2878.48,0.021038
2880.07,0.020786
2881.68,0.020795
2883.28,0.020659
2884.88,0.020536
2886.49,0.020312
2888.1,0.020024
2889.71,0.019911
2891.32,0.019742
2892.93,0.019622
2894.55,0.019408
2896.16,0.01928
2897.78,0.019192
2899.4,0.019121
2901.03,0.018917
2902.65,0.018547
2904.28,0.018273
2905.91,0.018158
2907.54,0.018302
2909.17,0.018159
2910.8,0.01791
2912.44,0.017852
2914.07,0.017875
2915.71,0.017403
2917.35,0.017122
2918.99,0.017061
2920.64,0.016986
2922.29,0.016963
2923.93,0.016861
2925.58,0.016561
2927.24,0.016549
2928.89,0.0162
2930.55,0.015877
2932.2,0.015851
2933.86,0.015935
2935.52,0.015956
2937.19,0.015676
2938.85,0.015397
2940.52,0.015433
2942.19,0.015316
2943.86,0.014999
2945.53,0.014736
2947.21,0.014771
2948.88,0.014561
2950.56,0.014333
2952.24,0.014169
2953.92,0.013994
2955.61,0.013888
2957.29,0.013738
2958.98,0.013527
2960.67,0.013471
2962.36,0.013309
2964.06,0.013011
2965.75,0.012742
2967.45,0.012705
2969.15,0.012932
2970.85,0.012761
2972.55,0.012366
2974.26,0.012193
2975.97,0.012072
2977.68,0.012041
2979.39,0.011885
2981.1,0.011797
2982.82,0.011751
2984.53,0.011711
2986.25,0.011809
2987.97,0.011434
2989.7,0.011011
2991.42,0.010906
2993.15,0.010827
2994.88,0.010689
2996.61,0.010519
2998.34,0.010506
3000.08,0.010582
3001.82,0.010607
3003.55,0.010539
3005.3,0.010511
3007.04,0.010537
3008.78,0.010455
3010.53,0.010452
3012.28,0.010537
3014.03,0.010689
3015.79,0.010701
3017.54,0.010673
3019.3,0.011105
3021.06,0.01142
3022.82,0.011449
3024.58,0.011608
3026.35,0.011818
3028.12,0.01204
3029.89,0.01226
3031.66,0.012483
3033.43,0.012557
3035.21,0.01275
3036.99,0.012797
3038.77,0.012958
3040.55,0.013329
3042.33,0.013528
3044.12,0.013816
3045.91,0.014145
3047.7,0.014356
3049.49,0.01439
3051.29,0.014519
3053.08,0.014819
3054.88,0.01497
3056.68,0.014949
3058.49,0.015174
3060.29,0.015696
3062.1,0.015993
3063.91,0.016178
3065.72,0.016387
3067.54,0.016542
3069.35,0.016824
3071.17,0.01712
3072.99,0.017399
3074.81,0.017638
3076.64,0.017932
3078.47,0.018284
3080.29,0.018591
3082.13,0.019013
3083.96,0.019215
3085.79,0.019242
3087.63,0.019408
3089.47,0.019651
3091.31,0.019939
3093.16,0.020176
3095.01,0.020353
3096.85,0.020284
3098.71,0.020309
3100.56,0.02072
3102.41,0.02098
3104.27,0.021056
3106.13,0.021119
3107.99,0.021076
3109.86,0.02112
3111.73,0.021315
3113.59,0.021651
3115.47,0.021705
3117.34,0.021602
3119.21,0.021625
3121.09,0.02184
3122.97,0.021878
3124.86,0.02191
3126.74,0.02192
3128.63,0.022119
3130.52,0.022376
3132.41,0.022244
3134.3,0.022221
3136.2,0.02235
3138.1,0.022288
3140.0,0.022253
3141.9,0.022371
3143.81,0.022496
3145.71,0.022604
3147.62,0.022516
3149.54,0.022481
3151.45,0.022552
3153.37,0.022461
3155.29,0.022306
3157.21,0.022401
3159.13,0.022545
3161.06,0.022503
3162.99,0.022482
3164.92,0.022552
3166.85,0.022439
3168.79,0.02237
3170.72,0.022483
3172.67,0.022531
3174.61,0.022504
3176.55,0.022519
3178.5,0.022438
3180.45,0.022485
3182.4,0.022494
3184.36,0.0225
3186.32,0.022365
3188.27,0.022347
3190.24,0.022251
3192.2,0.022168
3194.17,0.022271
3196.14,0.022323
3198.11,0.022355
3200.08,0.022169
3202.06,0.022042
3204.04,0.022061
3206.02,0.022078
3208.0,0.022284
3209.99,0.02231
3211.98,0.0223
3213.97,0.02236
3215.96,0.022255
3217.96,0.022169
3219.96,0.022173
3221.96,0.022151
3223.96,0.022286
3225.97,0.022353
3227.98,0.022236
3229.99,0.022201
3232.0,0.022373
3234.02,0.022502
3236.04,0.022492
3238.06,0.02244
3240.08,0.022475
3242.11,0.022505
3244.14,0.022494
3246.17,0.022658
3248.2,0.022877
3250.24,0.022834
3252.28,0.022854
3254.32,0.023043
3256.37,0.023098
3258.41,0.023301
3260.46,0.023362
3262.51,0.02346
3264.57,0.023659
3266.63,0.023545
3268.69,0.023468
3270.75,0.023576
3272.81,0.02372
3274.88,0.023801
3276.95,0.023818
3279.02,0.023895
3281.1,0.024073
3283.18,0.02419
3285.26,0.024248
3287.34,0.02422
3289.43,0.024269
3291.51,0.024295
3293.61,0.024275
3295.7,0.024385
3297.8,0.024418
3299.9,0.024507
3302.0,0.024722
3304.1,0.024818
3306.21,0.024845
3308.32,0.02479
3310.43,0.024658
3312.55,0.02473
3314.66,0.024903
3316.79,0.024907
3318.91,0.024828
3321.03,0.025012
3323.16,0.025208
3325.29,0.025145
3327.43,0.025036
3329.57,0.025107
3331.71,0.025257
3333.85,0.025426
3335.99,0.025534
3338.14,0.025492
3340.29,0.025497
3342.45,0.025514
3344.6,0.025419
3346.76,0.025412
3348.92,0.02541
3351.09,0.025398
3353.26,0.025428
3355.43,0.025344
3357.6,0.025402
3359.78,0.025591
3361.96,0.025564
3364.14,0.025538
3366.32,0.025702
3368.51,0.02578
3370.7,0.025733
3372.89,0.025685
3375.09,0.025705
3377.29,0.025721
3379.49,0.025778
3381.69,0.02588
3383.9,0.025862
3386.11,0.025704
3388.32,0.025636
3390.54,0.025831
3392.76,0.025959
3394.98,0.025824
3397.21,0.025802
3399.43,0.025726
3401.66,0.025665
3403.9,0.025815
3406.13,0.02593
3408.37,0.025901
3410.61,0.025915
3412.86,0.025945
3415.11,0.025882
3417.36,0.025846
3419.61,0.025824
3421.87,0.025857
3424.13,0.025769
3426.39,0.025702
3428.66,0.025803
3430.93,0.025909
3433.2,0.025894
3435.48,0.025967
3437.76,0.025926
3440.04,0.025815
3442.32,0.025732
3444.61,0.025555
3446.9,0.025526
3449.19,0.025609
3451.49,0.025607
3453.79,0.025536
3456.09,0.02568
3458.4,0.025848
3460.7,0.025798
3463.02,0.025822
3465.33,0.025823
3467.65,0.025813
3469.97,0.02576
3472.29,0.025817
3474.62,0.025822
3476.95,0.025858
3479.29,0.025875
3481.62,0.025874
3483.96,0.025931
3486.3,0.025957
3488.65,0.026054
3491.0,0.026076
3493.35,0.026011
3495.71,0.026162
3498.07,0.026321
3500.43,0.026316
3502.79,0.026312
3505.16,0.026176
3507.53,0.026211
3509.91,0.026333
3512.29,0.026412
3514.67,0.026396
3517.05,0.026395
3519.44,0.026421
3521.83,0.026505
3524.23,0.026539
3526.62,0.026492
3529.02,0.026461
3531.43,0.026603
3533.83,0.026642
3536.24,0.026572
3538.66,0.02664
3541.08,0.026719
3543.5,0.026735
3545.92,0.026888
3548.35,0.026875
3550.78,0.026923
3553.21,0.027043
3555.65,0.027011
3558.09,0.026991
3560.53,0.027074
3562.98,0.027227
3565.43,0.027305
3567.88,0.027352
3570.34,0.027451
3572.8,0.027483
3575.27,0.02758
3577.73,0.027627
3580.2,0.02767
3582.68,0.027701
3585.16,0.027653
3587.64,0.027674
3590.12,0.027779
3592.61,0.027853
3595.1,0.027908
3597.6,0.027902
3600.09,0.027996
3602.6,0.028001
3605.1,0.028024
3607.61,0.028093
3610.12,0.028078
3612.64,0.028144
3615.16,0.028132
3617.68,0.028028
3620.21,0.028109
3622.74,0.028349
3625.27,0.028428
3627.81,0.028304
3630.35,0.028333
3632.89,0.028376
3635.44,0.028392
3637.99,0.028429
3640.54,0.028444
3643.1,0.028524
3645.66,0.02858
3648.23,0.028531
3650.8,0.028471
3653.37,0.028449
3655.95,0.028541
3658.53,0.02859
3661.11,0.028605
3663.7,0.028652
3666.29,0.028814
3668.89,0.028923
3671.48,0.028809
3674.09,0.028823
3676.69,0.028859
3679.3,0.028898
3681.91,0.028979
3684.53,0.029081
3687.15,0.02921
3689.78,0.02926
3692.4,0.029236
3695.04,0.029215
3697.67,0.029253
3700.31,0.029338
3702.95,0.029347
3705.6,0.029406
3708.25,0.029461
3710.91,0.02954
3713.56,0.02959
3716.23,0.029578
3718.89,0.029606
3721.56,0.029654
3724.23,0.029593
3726.91,0.029478
3729.59,0.029584
3732.28,0.029904
3734.97,0.030059
3737.66,0.030026
3740.36,0.030025
3743.06,0.030024
3745.76,0.030115
3748.47,0.030314
3751.18,0.030424
3753.9,0.030472
3756.62,0.030355
3759.34,0.030368
3762.07,0.030513
3764.8,0.030561
3767.54,0.030566
3770.28,0.030588
3773.02,0.030737
3775.77,0.030852
3778.52,0.030965
3781.28,0.031055
3784.04,0.031143
3786.8,0.031299
3789.57,0.031351
3792.34,0.031413
3795.12,0.03158
3797.9,0.031546
3800.69,0.031566
3803.47,0.031722
3806.27,0.031792
3809.06,0.031829
3811.86,0.031968
3814.67,0.032029
3817.48,0.032121
3820.29,0.032166
3823.11,0.032244
3825.93,0.032475
3828.76,0.032579
3831.59,0.032572
3834.42,0.032711
3837.26,0.03285
3840.1,0.032917
3842.95,0.033038
3845.8,0.033294
3848.65,0.033446
3851.51,0.033538
3854.38,0.033584
3857.24,0.033587
3860.12,0.033798
3862.99,0.033951
3865.87,0.034101
3868.76,0.034185
3871.65,0.034291
3874.54,0.034482
3877.44,0.034475
3880.34,0.034569
3883.25,0.034833
3886.16,0.035055
