Database of Origin,University of Winnipeg Spectrophotometer Facility
Sample Description,8. Sulfates: RELAB + Nicolet spectra / Spectra all made consistently merged: Jan. / 10 / 2005
Date Added,2016-07-15 22:05:54.799307

Data ID,RPN_SUL_12          
Sample ID,SPT103
Mineral Name,Letovicite
Grain Size,45-90
Viewing Geometry,30 / 0 | 30
Resolution,5 / 1.3-129
Material Class,Sulfate

Wavelength
305.0,0.181073
310.0,0.179873
315.0,0.183505
320.0,0.185856
325.0,0.19292
330.0,0.199604
335.0,0.209139
340.0,0.221177
345.0,0.235086
350.0,0.25068
355.0,0.269431
360.0,0.290518
365.0,0.312975
370.0,0.337053
375.0,0.361128
380.0,0.386381
385.0,0.408648
390.0,0.431879
395.0,0.454994
400.0,0.474218
405.0,0.489489
410.0,0.503945
415.0,0.516658
420.0,0.526537
425.0,0.534537
430.0,0.54284
435.0,0.549988
440.0,0.556113
445.0,0.562121
450.0,0.568737
455.0,0.57368
460.0,0.579136
465.0,0.584982
470.0,0.589033
475.0,0.593893
480.0,0.600492
485.0,0.603839
490.0,0.60919
495.0,0.61428
500.0,0.618545
505.0,0.62335
510.0,0.627573
515.0,0.63203
520.0,0.636393
525.0,0.641444
530.0,0.64221
535.0,0.648237
540.0,0.651363
545.0,0.655834
550.0,0.659282
555.0,0.664414
560.0,0.66795
565.0,0.672614
570.0,0.675764
575.0,0.679092
580.0,0.682729
585.0,0.68778
590.0,0.691818
595.0,0.696453
600.0,0.699397
605.0,0.703591
610.0,0.707116
615.0,0.710567
620.0,0.713186
625.0,0.717892
630.0,0.720928
635.0,0.726256
640.0,0.730151
645.0,0.730432
650.0,0.735584
655.0,0.738975
660.0,0.741964
665.0,0.748368
670.0,0.748613
675.0,0.75047
680.0,0.755549
685.0,0.758656
690.0,0.761128
695.0,0.767613
700.0,0.767662
705.0,0.770847
710.0,0.773461
715.0,0.774786
720.0,0.77973
725.0,0.781537
730.0,0.778218
735.0,0.785281
740.0,0.783176
745.0,0.788889
750.0,0.788866
755.0,0.792563
760.0,0.795272
765.0,0.797026
770.0,0.798957
775.0,0.798851
780.0,0.801347
785.0,0.80136
790.0,0.802298
795.0,0.803143
800.0,0.805098
805.0,0.805855
810.0,0.805458
815.0,0.808153
820.0,0.807729
825.0,0.810385
830.0,0.809935
835.0,0.811109
840.0,0.813362
845.0,0.811191
850.0,0.815569
855.0,0.812597
860.0,0.817191
865.0,0.814422
870.0,0.816429
875.0,0.815515
880.0,0.816532
885.0,0.816197
890.0,0.817451
895.0,0.815213
900.0,0.816739
905.0,0.814066
910.0,0.813643
915.0,0.816366
920.0,0.81398
925.0,0.81637
930.0,0.815642
935.0,0.816175
940.0,0.819271
945.0,0.816375
950.0,0.818245
955.0,0.818576
960.0,0.819261
965.0,0.81572
970.0,0.817672
975.0,0.816851
980.0,0.818493
985.0,0.817123
990.0,0.817462
995.0,0.813813
1000.0,0.810873
1005.0,0.811752
1010.0,0.812733
1015.0,0.811335
1020.0,0.809147
1025.0,0.808091
1030.0,0.805254
1035.0,0.805209
1040.0,0.8016
1045.0,0.804001
1050.0,0.798824
1055.0,0.800636
1060.0,0.800764
1065.0,0.799375
1070.0,0.79863
1075.0,0.803441
1080.0,0.803456
1085.0,0.805301
1090.0,0.806523
1095.0,0.808686
1100.0,0.807271
1105.0,0.807844
1110.0,0.807137
1115.0,0.810085
1120.0,0.811612
1125.0,0.810972
1130.0,0.810867
1135.0,0.810584
1140.0,0.809074
1145.0,0.811213
1150.0,0.807111
1155.0,0.807459
1160.0,0.8057
1165.0,0.802723
1170.0,0.798897
1175.0,0.796293
1180.0,0.793115
1185.0,0.787329
1190.0,0.784862
1195.0,0.780026
1200.0,0.774565
1205.0,0.770987
1210.0,0.761115
1215.0,0.757428
1220.0,0.751346
1225.0,0.744371
1230.0,0.737331
1235.0,0.732345
1240.0,0.727518
1245.0,0.724131
1250.0,0.716938
1255.0,0.715027
1260.0,0.710356
1265.0,0.707857
1270.0,0.707552
1275.0,0.706393
1280.0,0.705689
1285.0,0.710046
1290.0,0.709479
1295.0,0.710006
1300.0,0.712806
1305.0,0.714479
1310.0,0.716524
1315.0,0.717416
1320.0,0.717049
1325.0,0.719195
1330.0,0.718718
1335.0,0.719726
1340.0,0.717189
1345.0,0.717623
1350.0,0.713597
1355.0,0.71153
1360.0,0.710786
1365.0,0.712047
1370.0,0.708671
1375.0,0.708078
1380.0,0.704569
1385.0,0.705518
1390.0,0.702558
1395.0,0.697274
1400.0,0.694956
1405.0,0.691025
1410.0,0.68812
1415.0,0.680884
1420.0,0.676305
1425.0,0.666119
1430.0,0.656039
1435.0,0.643907
1440.0,0.629034
1445.0,0.608513
1450.0,0.590988
1455.0,0.571589
1460.0,0.553104
1465.0,0.532889
1470.0,0.514314
1475.0,0.496693
1480.0,0.481562
1485.0,0.465918
1490.0,0.4557
1495.0,0.443031
1500.0,0.436557
1505.0,0.432281
1510.0,0.427542
1515.0,0.423952
1520.0,0.420417
1525.0,0.41343
1530.0,0.405631
1535.0,0.398467
1540.0,0.390702
1545.0,0.382853
1550.0,0.374526
1555.0,0.367941
1560.0,0.360427
1565.0,0.357617
1570.0,0.35455
1575.0,0.3526
1580.0,0.351941
1585.0,0.353293
1590.0,0.355342
1595.0,0.358826
1600.0,0.362295
1605.0,0.365213
1610.0,0.369001
1615.0,0.372389
1620.0,0.376381
1625.0,0.379879
1630.0,0.384032
1635.0,0.388119
1640.0,0.391107
1645.0,0.395415
1650.0,0.400559
1655.0,0.403389
1660.0,0.40835
1665.0,0.414254
1670.0,0.421115
1675.0,0.424219
1680.0,0.429914
1685.0,0.433081
1690.0,0.437329
1695.0,0.441293
1700.0,0.445837
1705.0,0.449625
1710.0,0.453782
1715.0,0.4576
1720.0,0.460861
1725.0,0.464139
1730.0,0.467078
1735.0,0.468571
1740.0,0.469391
1745.0,0.469419
1750.0,0.469652
1755.0,0.468848
1760.0,0.468617
1765.0,0.466391
1770.0,0.466325
1775.0,0.464521
1780.0,0.4654
1785.0,0.465336
1790.0,0.465957
1795.0,0.466038
1800.0,0.466414
1805.0,0.467819
1810.0,0.467656
1815.0,0.469256
1820.0,0.468455
1825.0,0.469971
1830.0,0.469639
1835.0,0.469713
1840.0,0.467956
1845.0,0.468431
1850.0,0.465464
1855.0,0.461422
1860.0,0.458347
1865.0,0.452378
1870.0,0.443929
1875.0,0.439895
1880.0,0.430334
1885.0,0.417901
1890.0,0.404269
1895.0,0.389724
1900.0,0.373823
1905.0,0.359913
1910.0,0.345366
1915.0,0.32859
1920.0,0.313083
1925.0,0.296646
1930.0,0.280249
1935.0,0.265043
1940.0,0.249971
1945.0,0.23464
1950.0,0.219799
1955.0,0.205387
1960.0,0.191541
1965.0,0.179838
1970.0,0.169304
1975.0,0.160636
1980.0,0.153751
1985.0,0.147282
1990.0,0.142394
1995.0,0.137294
2000.0,0.132372
2005.0,0.127379
2010.0,0.122989
2015.0,0.118954
2020.0,0.116518
2025.0,0.113299
2030.0,0.111008
2035.0,0.109203
2040.0,0.108087
2045.0,0.107735
2050.0,0.108116
2055.0,0.108761
2060.0,0.110241
2065.0,0.111263
2070.0,0.112305
2075.0,0.113401
2080.0,0.113506
2085.0,0.113075
2090.0,0.111755
2095.0,0.109844
2100.0,0.107205
2105.0,0.104469
2110.0,0.101559
2115.0,0.098246
2120.0,0.095093
2125.0,0.092728
2130.0,0.090545
2135.0,0.088758
2140.0,0.08753
2145.0,0.086244
2150.0,0.085623
2155.0,0.085402
2160.0,0.085113
2165.0,0.084481
2170.0,0.086687
2175.0,0.088928
2180.0,0.091884
2185.0,0.096277
2190.0,0.101414
2195.0,0.107039
2200.0,0.112961
2205.0,0.11871
2210.0,0.12326
2215.0,0.127924
2220.0,0.132303
2225.0,0.137236
2230.0,0.1431
2235.0,0.148492
2240.0,0.154293
2245.0,0.160412
2250.0,0.165985
2255.0,0.171908
2260.0,0.178514
2265.0,0.184332
2270.0,0.190743
2275.0,0.195514
2280.0,0.199169
2285.0,0.201044
2290.0,0.201777
2295.0,0.201945
2300.0,0.201511
2305.0,0.202573
2310.0,0.202466
2315.0,0.203023
2320.0,0.203789
2325.0,0.203735
2330.0,0.203051
2335.0,0.202988
2340.0,0.202968
2345.0,0.201862
2350.0,0.201282
2355.0,0.198558
2360.0,0.196685
2365.0,0.193729
2370.0,0.190173
2375.0,0.186684
2380.0,0.182474
2385.0,0.178
2390.0,0.173642
2395.0,0.170072
2400.0,0.166278
2405.0,0.163356
2410.0,0.160269
2415.0,0.158877
2420.0,0.157325
2425.0,0.157982
2430.0,0.159786
2435.0,0.163263
2440.0,0.167436
2445.0,0.171426
2450.0,0.174687
2455.0,0.177614
2460.0,0.179249
2465.0,0.179807
2470.0,0.178928
2475.0,0.177147
2480.0,0.176401
2485.0,0.1734
2490.0,0.17091
2495.0,0.167313
2500.0,0.164405
2505.0,0.161039
2510.0,0.159051
2515.0,0.155903
2520.0,0.154638
2525.0,0.151873
2530.0,0.149438
2535.0,0.147534
2540.0,0.145919
2545.0,0.143153
2550.0,0.141614
2555.0,0.140951
2560.0,0.139198
2565.13,0.137959
2570.22,0.136188
2575.33,0.134877
2580.46,0.133777
2581.74,0.132946
2583.03,0.132682
2584.31,0.132348
2585.6,0.132128
2586.89,0.131846
2588.19,0.131284
2589.48,0.131299
2590.77,0.131027
2592.07,0.130444
2593.36,0.130058
2594.66,0.128894
2595.96,0.128674
2597.26,0.129283
2598.56,0.128883
2599.87,0.128053
2601.17,0.127478
2602.48,0.127012
2603.78,0.126643
2605.09,0.12587
2606.4,0.125218
2607.71,0.125427
2609.03,0.125555
2610.34,0.125178
2611.66,0.124629
2612.97,0.123943
2614.29,0.123057
2615.61,0.12254
2616.93,0.122237
2618.25,0.122189
2619.57,0.122033
2620.9,0.121086
2622.22,0.120718
2623.55,0.120374
2624.88,0.119594
2626.21,0.11859
2627.54,0.117893
2628.87,0.117863
2630.21,0.117301
2631.54,0.116715
2632.88,0.11649
2634.21,0.116005
2635.55,0.115568
2636.89,0.114937
2638.24,0.114424
2639.58,0.11426
2640.92,0.113816
2642.27,0.112806
2643.62,0.112013
2644.97,0.111446
2646.32,0.110789
2647.67,0.110413
2649.02,0.109788
2650.38,0.109127
2651.73,0.108657
2653.09,0.107703
2654.45,0.106745
2655.81,0.106173
2657.17,0.10575
2658.53,0.105235
2659.89,0.104344
2661.26,0.103664
2662.63,0.103129
2664.0,0.102366
2665.36,0.101325
2666.74,0.100439
2668.11,0.100023
2669.48,0.099442
2670.86,0.097795
2672.23,0.096995
2673.61,0.096621
2674.99,0.095157
2676.37,0.093606
2677.76,0.092614
2679.14,0.091887
2680.52,0.090933
2681.91,0.090502
2683.3,0.089646
2684.69,0.088484
2686.08,0.087536
2687.47,0.086678
2688.87,0.085865
2690.26,0.085064
2691.66,0.083986
2693.06,0.082776
2694.46,0.081556
2695.86,0.080785
2697.26,0.080156
2698.66,0.079207
2700.07,0.078021
2701.48,0.077102
2702.89,0.076526
2704.3,0.075634
2705.71,0.074268
2707.12,0.073363
2708.53,0.072504
2709.95,0.071481
2711.37,0.070407
2712.79,0.069477
2714.21,0.068784
2715.63,0.067947
2717.05,0.066841
2718.48,0.065903
2719.9,0.064779
2721.33,0.063527
2722.76,0.063031
2724.19,0.062062
2725.62,0.06105
2727.06,0.060505
2728.49,0.059534
2729.93,0.058461
2731.37,0.057179
2732.81,0.056029
2734.25,0.055142
2735.69,0.054161
2737.14,0.053187
2738.58,0.052296
2740.03,0.051316
2741.48,0.05029
2742.93,0.049584
2744.38,0.048641
2745.83,0.047389
2747.29,0.046422
2748.75,0.045469
2750.2,0.044602
2751.66,0.04373
2753.13,0.042899
2754.59,0.042245
2756.05,0.041123
2757.52,0.040238
2758.99,0.039295
2760.46,0.038216
2761.93,0.037434
2763.4,0.036952
2764.87,0.036494
2766.35,0.035623
2767.82,0.034701
2769.3,0.034073
2770.78,0.033421
2772.26,0.032661
2773.75,0.032117
2775.23,0.03148
2776.72,0.030788
2778.21,0.03028
2779.7,0.02973
2781.19,0.029179
2782.68,0.028738
2784.18,0.028215
2785.67,0.027723
2787.17,0.027203
2788.67,0.026617
2790.17,0.025821
2791.67,0.025404
2793.18,0.024971
2794.68,0.024358
2796.19,0.024015
2797.7,0.023669
2799.21,0.023348
2800.72,0.023093
2802.24,0.022722
2803.75,0.022366
2805.27,0.022039
2806.79,0.021771
2808.31,0.021515
2809.83,0.021239
2811.35,0.020986
2812.88,0.020547
2814.41,0.02019
2815.93,0.01983
2817.46,0.019614
2819.0,0.019452
2820.53,0.019343
2822.07,0.01911
2823.6,0.018796
2825.14,0.018441
2826.68,0.018249
2828.22,0.017975
2829.77,0.017678
2831.31,0.017412
2832.86,0.01715
2834.41,0.016931
2835.96,0.01689
2837.51,0.016866
2839.07,0.016766
2840.62,0.016507
2842.18,0.016193
2843.74,0.016077
2845.3,0.015998
2846.86,0.015858
2848.43,0.015732
2849.99,0.015437
2851.56,0.015216
2853.13,0.0152
2854.7,0.015211
2856.27,0.014964
2857.85,0.014566
2859.42,0.014617
2861.0,0.014648
2862.58,0.014585
2864.16,0.014396
2865.75,0.014159
2867.33,0.014096
2868.92,0.013835
2870.51,0.013639
2872.1,0.013651
2873.69,0.013472
2875.28,0.013491
2876.88,0.013426
2878.48,0.013198
2880.07,0.013154
2881.68,0.012816
2883.28,0.012776
2884.88,0.012946
2886.49,0.012952
2888.1,0.012825
2889.71,0.012801
2891.32,0.01275
2892.93,0.012406
2894.55,0.012135
2896.16,0.012213
2897.78,0.012282
2899.4,0.011946
2901.03,0.011625
2902.65,0.011645
2904.28,0.011754
2905.91,0.011653
2907.54,0.01157
2909.17,0.011502
2910.8,0.01167
2912.44,0.011645
2914.07,0.011187
2915.71,0.010951
2917.35,0.011044
2918.99,0.011129
2920.64,0.010943
2922.29,0.010896
2923.93,0.010906
2925.58,0.010684
2927.24,0.01049
2928.89,0.010456
2930.55,0.010477
2932.2,0.010568
2933.86,0.010631
2935.52,0.010392
2937.19,0.01022
2938.85,0.010022
2940.52,0.009903
2942.19,0.009956
2943.86,0.009899
2945.53,0.009958
2947.21,0.009944
2948.88,0.009861
2950.56,0.009738
2952.24,0.009539
2953.92,0.009429
2955.61,0.009551
2957.29,0.009719
2958.98,0.009578
2960.67,0.009434
2962.36,0.00913
2964.06,0.008992
2965.75,0.009115
2967.45,0.009139
2969.15,0.009118
2970.85,0.008976
2972.55,0.008989
2974.26,0.008849
2975.97,0.008758
2977.68,0.008821
2979.39,0.008731
2981.1,0.008668
2982.82,0.008667
2984.53,0.008635
2986.25,0.008567
2987.97,0.008425
2989.7,0.008206
2991.42,0.008309
2993.15,0.008452
2994.88,0.008372
2996.61,0.008222
2998.34,0.008168
3000.08,0.008135
3001.82,0.00826
3003.55,0.008347
3005.3,0.008214
3007.04,0.008102
3008.78,0.008211
3010.53,0.008176
3012.28,0.007873
3014.03,0.007691
3015.79,0.007866
3017.54,0.007913
3019.3,0.00801
3021.06,0.008194
3022.82,0.008147
3024.58,0.007978
3026.35,0.007983
3028.12,0.008351
3029.89,0.008464
3031.66,0.008342
3033.43,0.008246
3035.21,0.008462
3036.99,0.008558
3038.77,0.008392
3040.55,0.008425
3042.33,0.00833
3044.12,0.008244
3045.91,0.008426
3047.7,0.008534
3049.49,0.008648
3051.29,0.008741
3053.08,0.008921
3054.88,0.00907
3056.68,0.009086
3058.49,0.009228
3060.29,0.009509
3062.1,0.009437
3063.91,0.009264
3065.72,0.009316
3067.54,0.009377
3069.35,0.009463
3071.17,0.009646
3072.99,0.009774
3074.81,0.009813
3076.64,0.009902
3078.47,0.010024
3080.29,0.010213
3082.13,0.010336
3083.96,0.010374
3085.79,0.010366
3087.63,0.010395
3089.47,0.01049
3091.31,0.010475
3093.16,0.010621
3095.01,0.010746
3096.85,0.010742
3098.71,0.010799
3100.56,0.010871
3102.41,0.010952
3104.27,0.01096
3106.13,0.011043
3107.99,0.011167
3109.86,0.011326
3111.73,0.011348
3113.59,0.011321
3115.47,0.011402
3117.34,0.011564
3119.21,0.0115
3121.09,0.011471
3122.97,0.011593
3124.86,0.011772
3126.74,0.011855
3128.63,0.011924
3130.52,0.012023
3132.41,0.011989
3134.3,0.01189
3136.2,0.011729
3138.1,0.011819
3140.0,0.01196
3141.9,0.012003
3143.81,0.012159
3145.71,0.012276
3147.62,0.012196
3149.54,0.012082
3151.45,0.012017
3153.37,0.012054
3155.29,0.012217
3157.21,0.012379
3159.13,0.012285
3161.06,0.012103
3162.99,0.012328
3164.92,0.012553
3166.85,0.012401
3168.79,0.012372
3170.72,0.012317
3172.67,0.012232
3174.61,0.012331
3176.55,0.012417
3178.5,0.012412
3180.45,0.012474
3182.4,0.012502
3184.36,0.012502
3186.32,0.012454
3188.27,0.012451
3190.24,0.012515
3192.2,0.012486
3194.17,0.012457
3196.14,0.012574
3198.11,0.012632
3200.08,0.012556
3202.06,0.012425
3204.04,0.012538
3206.02,0.012712
3208.0,0.012708
3209.99,0.012632
3211.98,0.012524
3213.97,0.012404
3215.96,0.012373
3217.96,0.012448
3219.96,0.012495
3221.96,0.012622
3223.96,0.012677
3225.97,0.012513
3227.98,0.01246
3229.99,0.01254
3232.0,0.012635
3234.02,0.012639
3236.04,0.01261
3238.06,0.012689
3240.08,0.012674
3242.11,0.012601
3244.14,0.012573
3246.17,0.012511
3248.2,0.012456
3250.24,0.012517
3252.28,0.012686
3254.32,0.012778
3256.37,0.012781
3258.41,0.012775
3260.46,0.012847
3262.51,0.012871
3264.57,0.012957
3266.63,0.013034
3268.69,0.013096
3270.75,0.013104
3272.81,0.01315
3274.88,0.013204
3276.95,0.013303
3279.02,0.013276
3281.1,0.013354
3283.18,0.013574
3285.26,0.013567
3287.34,0.01355
3289.43,0.013547
3291.51,0.013479
3293.61,0.01352
3295.7,0.013593
3297.8,0.013681
3299.9,0.013816
3302.0,0.013907
3304.1,0.013837
3306.21,0.013927
3308.32,0.014103
3310.43,0.014041
3312.55,0.013893
3314.66,0.013954
3316.79,0.014138
3318.91,0.014155
3321.03,0.014163
3323.16,0.014226
3325.29,0.014239
3327.43,0.014302
3329.57,0.014435
3331.71,0.014595
3333.85,0.014715
3335.99,0.014834
3338.14,0.014848
3340.29,0.014943
3342.45,0.014826
3344.6,0.014621
3346.76,0.01468
3348.92,0.014797
3351.09,0.014884
3353.26,0.014997
3355.43,0.014994
3357.6,0.014979
3359.78,0.015016
3361.96,0.015002
3364.14,0.014986
3366.32,0.015057
3368.51,0.015146
3370.7,0.015149
3372.89,0.015193
3375.09,0.015256
3377.29,0.015254
3379.49,0.015303
3381.69,0.015345
3383.9,0.015415
3386.11,0.015426
3388.32,0.015518
3390.54,0.015658
3392.76,0.015634
3394.98,0.015514
3397.21,0.015502
3399.43,0.01559
3401.66,0.015536
3403.9,0.01547
3406.13,0.015526
3408.37,0.015587
3410.61,0.015705
3412.86,0.01577
3415.11,0.01571
3417.36,0.015726
3419.61,0.015774
3421.87,0.015785
3424.13,0.015812
3426.39,0.015844
3428.66,0.015799
3430.93,0.01581
3433.2,0.015757
3435.48,0.01569
3437.76,0.015596
3440.04,0.015633
3442.32,0.015674
3444.61,0.015639
3446.9,0.015781
3449.19,0.015773
3451.49,0.015758
3453.79,0.015882
3456.09,0.015901
3458.4,0.015794
3460.7,0.01573
3463.02,0.015774
3465.33,0.015864
3467.65,0.015896
3469.97,0.015854
3472.29,0.015806
3474.62,0.015849
3476.95,0.015924
3479.29,0.015918
3481.62,0.015884
3483.96,0.016006
3486.3,0.016083
3488.65,0.016011
3491.0,0.016012
3493.35,0.016019
3495.71,0.016067
3498.07,0.016212
3500.43,0.016286
3502.79,0.0162
3505.16,0.016225
3507.53,0.016251
3509.91,0.016339
3512.29,0.016405
3514.67,0.01634
3517.05,0.016341
3519.44,0.016447
3521.83,0.016537
3524.23,0.016572
3526.62,0.016608
3529.02,0.016605
3531.43,0.0167
3533.83,0.01691
3536.24,0.016926
3538.66,0.016901
3541.08,0.016911
3543.5,0.016993
3545.92,0.017169
3548.35,0.017208
3550.78,0.017262
3553.21,0.017496
3555.65,0.017634
3558.09,0.017545
3560.53,0.017541
3562.98,0.017762
3565.43,0.017861
3567.88,0.017848
3570.34,0.017935
3572.8,0.018027
3575.27,0.018059
3577.73,0.018106
3580.2,0.018157
3582.68,0.018281
3585.16,0.018364
3587.64,0.018396
3590.12,0.018403
3592.61,0.018522
3595.1,0.018672
3597.6,0.018776
3600.09,0.01875
3602.6,0.018773
3605.1,0.018943
3607.61,0.019038
3610.12,0.019094
3612.64,0.019129
3615.16,0.019236
3617.68,0.019373
3620.21,0.019459
3622.74,0.019562
3625.27,0.019645
3627.81,0.019643
3630.35,0.019686
3632.89,0.019772
3635.44,0.019928
3637.99,0.020018
3640.54,0.019983
3643.1,0.019992
3645.66,0.020147
3648.23,0.020298
3650.8,0.020371
3653.37,0.020471
3655.95,0.020606
3658.53,0.020675
3661.11,0.020681
3663.7,0.02076
3666.29,0.0209
3668.89,0.021009
3671.48,0.021043
3674.09,0.021123
3676.69,0.02119
3679.3,0.0212
3681.91,0.021316
3684.53,0.021415
3687.15,0.021457
3689.78,0.021607
3692.4,0.021697
3695.04,0.021766
3697.67,0.021824
3700.31,0.021984
3702.95,0.022073
3705.6,0.022081
3708.25,0.0222
3710.91,0.0224
3713.56,0.022552
3716.23,0.022564
3718.89,0.022578
3721.56,0.022652
3724.23,0.022777
3726.91,0.02286
3729.59,0.02291
3732.28,0.02312
3734.97,0.023302
3737.66,0.023351
3740.36,0.023459
3743.06,0.023611
3745.76,0.023767
3748.47,0.023876
3751.18,0.023933
3753.9,0.023925
3756.62,0.02395
3759.34,0.024085
3762.07,0.024192
3764.8,0.024349
3767.54,0.024455
3770.28,0.024461
3773.02,0.024587
3775.77,0.02479
3778.52,0.024853
3781.28,0.024894
3784.04,0.024978
3786.8,0.025037
3789.57,0.025234
3792.34,0.025448
3795.12,0.025584
3797.9,0.025665
3800.69,0.02582
3803.47,0.025927
3806.27,0.025989
3809.06,0.02614
3811.86,0.02621
3814.67,0.026239
3817.48,0.026443
3820.29,0.026619
3823.11,0.026686
3825.93,0.026746
3828.76,0.026838
3831.59,0.02698
3834.42,0.027141
3837.26,0.027317
3840.1,0.027391
3842.95,0.027484
3845.8,0.027584
3848.65,0.027755
3851.51,0.027905
3854.38,0.028015
3857.24,0.028148
3860.12,0.028279
3862.99,0.028465
3865.87,0.028638
3868.76,0.028746
3871.65,0.028767
3874.54,0.028773
3877.44,0.028854
3880.34,0.029063
3883.25,0.029203
3886.16,0.02937
3889.07,0.029478
