Database of Origin,University of Winnipeg Spectrophotometer Facility
Sample Description,9.2. MAGNETITE: Merged RELAB & Nicole / Merged at 2.5 um / different viewing geometry
Date Added,2016-07-15 22:03:00.066254

Data ID,RPN_MAG_04          
Sample ID,MAG104
Mineral Name,Magnetite
Grain Size,<45
Viewing Geometry,30 / 0 | 30
Resolution,1.2-129
Material Class,Magnetite

Wavelength
305.0,0.044921
310.0,0.045399
315.0,0.045383
320.0,0.04733
325.0,0.049061
330.0,0.048418
335.0,0.049114
340.0,0.050068
345.0,0.050617
350.0,0.050589
355.0,0.050773
360.0,0.051758
365.0,0.051876
370.0,0.051988
375.0,0.052691
380.0,0.052105
385.0,0.052575
390.0,0.052442
395.0,0.05256
400.0,0.05251
405.0,0.052667
410.0,0.052416
415.0,0.052378
420.0,0.051942
425.0,0.051979
430.0,0.051838
435.0,0.05173
440.0,0.051375
445.0,0.051075
450.0,0.050935
455.0,0.050862
460.0,0.050593
465.0,0.050457
470.0,0.050325
475.0,0.050321
480.0,0.05036
485.0,0.05027
490.0,0.050236
495.0,0.050134
500.0,0.050032
505.0,0.049936
510.0,0.049906
515.0,0.049905
520.0,0.049874
525.0,0.050278
530.0,0.050281
535.0,0.050335
540.0,0.050525
545.0,0.050502
550.0,0.05059
555.0,0.05058
560.0,0.050611
565.0,0.050546
570.0,0.050518
575.0,0.050543
580.0,0.050546
585.0,0.050597
590.0,0.050594
595.0,0.050573
600.0,0.050611
605.0,0.050623
610.0,0.050847
615.0,0.05098
620.0,0.051065
625.0,0.051144
630.0,0.051297
635.0,0.051217
640.0,0.051271
645.0,0.051093
650.0,0.051131
655.0,0.050987
660.0,0.050746
665.0,0.050659
670.0,0.050539
675.0,0.050348
680.0,0.05024
685.0,0.050057
690.0,0.049871
695.0,0.049589
700.0,0.049121
705.0,0.049001
710.0,0.048942
715.0,0.048687
720.0,0.0485
725.0,0.048586
730.0,0.048479
735.0,0.048072
740.0,0.047803
745.0,0.047611
750.0,0.047569
755.0,0.047281
760.0,0.047181
765.0,0.047079
770.0,0.046871
775.0,0.046542
780.0,0.046432
785.0,0.046186
790.0,0.046051
795.0,0.045735
800.0,0.045685
805.0,0.045249
810.0,0.045436
815.0,0.045053
820.0,0.044695
825.0,0.044677
830.0,0.044318
835.0,0.044112
840.0,0.043773
845.0,0.043962
850.0,0.043698
855.0,0.043038
860.0,0.042252
865.0,0.04288
870.0,0.04236
875.0,0.04227
880.0,0.041548
885.0,0.04183
890.0,0.041447
895.0,0.041002
900.0,0.041054
905.0,0.040775
910.0,0.040553
915.0,0.039912
920.0,0.040093
925.0,0.039551
930.0,0.039351
935.0,0.039689
940.0,0.039776
945.0,0.039344
950.0,0.039068
955.0,0.038977
960.0,0.038739
965.0,0.038534
970.0,0.038747
975.0,0.038423
980.0,0.038399
985.0,0.03828
990.0,0.038411
995.0,0.038553
1000.0,0.038149
1005.0,0.037929
1010.0,0.038059
1015.0,0.037724
1020.0,0.037897
1025.0,0.037601
1030.0,0.037661
1035.0,0.037881
1040.0,0.037941
1045.0,0.037688
1050.0,0.037747
1055.0,0.03771
1060.0,0.037471
1065.0,0.037456
1070.0,0.037588
1075.0,0.03761
1080.0,0.037725
1085.0,0.0376
1090.0,0.037574
1095.0,0.037652
1100.0,0.037714
1105.0,0.037908
1110.0,0.037834
1115.0,0.037966
1120.0,0.037931
1125.0,0.03818
1130.0,0.038102
1135.0,0.038178
1140.0,0.038087
1145.0,0.0383
1150.0,0.038358
1155.0,0.038344
1160.0,0.038572
1165.0,0.038648
1170.0,0.038827
1175.0,0.038798
1180.0,0.038896
1185.0,0.039067
1190.0,0.039144
1195.0,0.039341
1200.0,0.03945
1205.0,0.039441
1210.0,0.039566
1215.0,0.039637
1220.0,0.039652
1225.0,0.040204
1230.0,0.040066
1235.0,0.039985
1240.0,0.040317
1245.0,0.040313
1250.0,0.040422
1255.0,0.04055
1260.0,0.040613
1265.0,0.040701
1270.0,0.040907
1275.0,0.040821
1280.0,0.040975
1285.0,0.041042
1290.0,0.041125
1295.0,0.041271
1300.0,0.041562
1305.0,0.041531
1310.0,0.041738
1315.0,0.042027
1320.0,0.04207
1325.0,0.042467
1330.0,0.042177
1335.0,0.042677
1340.0,0.042778
1345.0,0.042924
1350.0,0.043053
1355.0,0.043233
1360.0,0.043525
1365.0,0.04341
1370.0,0.043678
1375.0,0.043905
1380.0,0.044225
1385.0,0.044107
1390.0,0.04433
1395.0,0.044667
1400.0,0.044947
1405.0,0.045102
1410.0,0.045055
1415.0,0.045212
1420.0,0.045486
1425.0,0.045438
1430.0,0.045565
1435.0,0.045872
1440.0,0.045982
1445.0,0.046251
1450.0,0.046401
1455.0,0.046317
1460.0,0.046729
1465.0,0.046895
1470.0,0.046935
1475.0,0.046949
1480.0,0.047378
1485.0,0.04738
1490.0,0.047584
1495.0,0.048053
1500.0,0.047845
1505.0,0.047884
1510.0,0.048077
1515.0,0.048397
1520.0,0.048605
1525.0,0.048749
1530.0,0.048962
1535.0,0.049019
1540.0,0.049615
1545.0,0.049604
1550.0,0.049712
1555.0,0.049957
1560.0,0.049973
1565.0,0.050387
1570.0,0.050613
1575.0,0.050503
1580.0,0.05059
1585.0,0.05075
1590.0,0.051141
1595.0,0.051535
1600.0,0.051228
1605.0,0.05135
1610.0,0.051484
1615.0,0.051606
1620.0,0.05191
1625.0,0.051716
1630.0,0.052323
1635.0,0.05229
1640.0,0.052545
1645.0,0.052615
1650.0,0.052419
1655.0,0.052632
1660.0,0.052649
1665.0,0.053279
1670.0,0.053228
1675.0,0.053146
1680.0,0.053383
1685.0,0.053774
1690.0,0.053789
1695.0,0.053823
1700.0,0.054165
1705.0,0.054344
1710.0,0.054527
1715.0,0.05451
1720.0,0.054707
1725.0,0.0548
1730.0,0.054929
1735.0,0.055005
1740.0,0.055224
1745.0,0.055287
1750.0,0.055231
1755.0,0.05529
1760.0,0.05542
1765.0,0.055393
1770.0,0.055351
1775.0,0.055653
1780.0,0.055967
1785.0,0.055686
1790.0,0.055999
1795.0,0.05618
1800.0,0.056124
1805.0,0.056595
1810.0,0.056224
1815.0,0.056471
1820.0,0.056416
1825.0,0.05656
1830.0,0.056709
1835.0,0.056663
1840.0,0.05681
1845.0,0.056777
1850.0,0.056848
1855.0,0.056979
1860.0,0.05702
1865.0,0.057332
1870.0,0.057043
1875.0,0.057262
1880.0,0.057566
1885.0,0.057539
1890.0,0.057895
1895.0,0.05794
1900.0,0.058034
1905.0,0.058082
1910.0,0.058103
1915.0,0.05813
1920.0,0.058368
1925.0,0.058657
1930.0,0.058685
1935.0,0.058661
1940.0,0.058866
1945.0,0.05873
1950.0,0.058934
1955.0,0.059043
1960.0,0.059247
1965.0,0.05928
1970.0,0.059436
1975.0,0.059599
1980.0,0.059611
1985.0,0.059879
1990.0,0.059748
1995.0,0.059912
2000.0,0.059932
2005.0,0.060165
2010.0,0.060145
2015.0,0.060201
2020.0,0.060286
2025.0,0.060554
2030.0,0.060716
2035.0,0.060593
2040.0,0.06074
2045.0,0.060722
2050.0,0.06079
2055.0,0.061053
2060.0,0.061067
2065.0,0.061143
2070.0,0.061166
2075.0,0.061201
2080.0,0.061463
2085.0,0.06134
2090.0,0.061757
2095.0,0.061736
2100.0,0.061731
2105.0,0.061928
2110.0,0.061872
2115.0,0.062117
2120.0,0.062217
2125.0,0.062241
2130.0,0.062178
2135.0,0.062053
2140.0,0.062269
2145.0,0.062264
2150.0,0.062448
2155.0,0.062264
2160.0,0.062339
2165.0,0.062394
2170.0,0.062424
2175.0,0.062479
2180.0,0.062514
2185.0,0.062761
2190.0,0.062711
2195.0,0.06281
2200.0,0.062783
2205.0,0.062782
2210.0,0.062849
2215.0,0.062851
2220.0,0.063047
2225.0,0.063262
2230.0,0.062824
2235.0,0.063001
2240.0,0.063216
2245.0,0.063363
2250.0,0.063433
2255.0,0.063641
2260.0,0.063643
2265.0,0.063583
2270.0,0.06365
2275.0,0.063728
2280.0,0.063907
2285.0,0.063911
2290.0,0.063832
2295.0,0.064074
2300.0,0.064367
2305.0,0.064488
2310.0,0.064381
2315.0,0.064284
2320.0,0.064594
2325.0,0.064394
2330.0,0.064756
2335.0,0.064761
2340.0,0.064708
2345.0,0.064781
2350.0,0.064917
2355.0,0.065168
2360.0,0.065052
2365.0,0.065005
2370.0,0.065082
2375.0,0.065306
2380.0,0.065304
2385.0,0.065402
2390.0,0.06549
2395.0,0.065688
2400.0,0.065735
2405.0,0.065527
2410.0,0.065452
2415.0,0.065686
2420.0,0.065778
2425.0,0.065469
2430.0,0.065804
2435.0,0.065731
2440.0,0.065918
2445.0,0.0658
2450.0,0.06595
2455.0,0.066031
2460.0,0.065879
2465.0,0.066055
2470.0,0.066219
2475.0,0.066237
2480.0,0.066337
2485.0,0.066125
2490.0,0.066339
2495.0,0.066581
2500.0,0.066525
2502.0,0.066404
2503.2,0.066456
2504.41,0.066494
2505.62,0.06663
2506.83,0.066649
2508.05,0.066344
2509.26,0.066164
2510.48,0.066305
2511.69,0.066318
2512.91,0.066259
2514.13,0.066173
2515.35,0.066289
2516.57,0.06648
2517.79,0.066427
2519.02,0.0665
2520.24,0.066558
2521.47,0.066427
2522.69,0.066465
2523.92,0.066441
2525.15,0.066029
2526.38,0.065972
2527.61,0.066152
2528.85,0.06635
2530.08,0.066564
2531.32,0.066659
2532.55,0.066544
2533.79,0.066344
2535.03,0.06615
2536.27,0.06626
2537.51,0.066463
2538.75,0.066243
2540.0,0.066158
2541.24,0.06634
2542.49,0.066304
2543.74,0.066178
2544.99,0.066261
2546.24,0.066456
2547.49,0.066463
2548.74,0.066218
2549.99,0.066053
2551.25,0.06639
2552.5,0.066587
2553.76,0.066379
2555.02,0.066213
2556.28,0.066081
2557.54,0.06585
2558.8,0.06594
2560.07,0.066195
2561.33,0.06637
2562.6,0.066541
2563.86,0.066648
2565.13,0.06673
2566.4,0.066734
2567.67,0.066419
2568.95,0.066208
2570.22,0.066233
2571.5,0.066293
2572.77,0.066403
2574.05,0.066216
2575.33,0.066074
2576.61,0.066274
2577.89,0.066178
2579.17,0.066388
2580.46,0.066756
2581.74,0.066452
2583.03,0.066166
2584.31,0.066231
2585.6,0.066407
2586.89,0.066387
2588.19,0.066339
2589.48,0.066505
2590.77,0.066628
2592.07,0.066546
2593.36,0.066517
2594.66,0.066467
2595.96,0.066297
2597.26,0.066252
2598.56,0.066396
2599.87,0.066383
2601.17,0.066137
2602.48,0.066073
2603.78,0.066522
2605.09,0.066577
2606.4,0.066342
2607.71,0.066439
2609.03,0.066469
2610.34,0.06654
2611.66,0.066509
2612.97,0.066199
2614.29,0.066117
2615.61,0.066399
2616.93,0.066657
2618.25,0.066494
2619.57,0.066556
2620.9,0.066745
2622.22,0.0667
2623.55,0.066589
2624.88,0.06657
2626.21,0.066591
2627.54,0.066515
2628.87,0.06663
2630.21,0.066407
2631.54,0.066134
2632.88,0.066249
2634.21,0.066499
2635.55,0.066562
2636.89,0.066484
2638.24,0.066118
2639.58,0.066153
2640.92,0.066524
2642.27,0.066555
2643.62,0.066121
2644.97,0.066024
2646.32,0.066252
2647.67,0.066588
2649.02,0.066497
2650.38,0.066278
2651.73,0.066152
2653.09,0.065972
2654.45,0.066032
2655.81,0.066073
2657.17,0.065985
2658.53,0.066161
2659.89,0.066216
2661.26,0.066057
2662.63,0.06591
2664.0,0.065935
2665.36,0.066004
2666.74,0.06621
2668.11,0.066227
2669.48,0.066045
2670.86,0.065851
2672.23,0.065901
2673.61,0.0663
2674.99,0.066191
2676.37,0.06594
2677.76,0.065959
2679.14,0.066002
2680.52,0.065845
2681.91,0.065954
2683.3,0.065914
2684.69,0.065862
2686.08,0.065979
2687.47,0.066173
2688.87,0.066111
2690.26,0.065999
2691.66,0.065902
2693.06,0.065844
2694.46,0.066063
2695.86,0.066172
2697.26,0.066069
2698.66,0.065914
2700.07,0.065746
2701.48,0.065645
2702.89,0.065678
2704.3,0.065785
2705.71,0.06575
2707.12,0.065816
2708.53,0.065975
2709.95,0.066048
2711.37,0.065814
2712.79,0.065849
2714.21,0.066035
2715.63,0.065978
2717.05,0.06583
2718.48,0.065807
2719.9,0.065738
2721.33,0.065788
2722.76,0.066261
2724.19,0.06632
2725.62,0.066166
2727.06,0.066092
2728.49,0.06596
2729.93,0.065988
2731.37,0.066034
2732.81,0.065887
2734.25,0.065827
2735.69,0.065664
2737.14,0.065871
2738.58,0.065911
2740.03,0.065742
2741.48,0.065904
2742.93,0.066046
2744.38,0.066099
2745.83,0.066157
2747.29,0.066074
2748.75,0.065826
2750.2,0.065688
2751.66,0.065549
2753.13,0.065635
2754.59,0.065822
2756.05,0.065759
2757.52,0.065698
2758.99,0.065857
2760.46,0.06597
2761.93,0.066022
2763.4,0.066065
2764.87,0.065932
2766.35,0.065716
2767.82,0.065648
2769.3,0.065614
2770.78,0.065515
2772.26,0.065549
2773.75,0.065632
2775.23,0.065525
2776.72,0.065507
2778.21,0.065595
2779.7,0.065567
2781.19,0.065382
2782.68,0.065243
2784.18,0.065251
2785.67,0.065392
2787.17,0.065534
2788.67,0.065595
2790.17,0.065546
2791.67,0.065315
2793.18,0.065281
2794.68,0.065341
2796.19,0.0651
2797.7,0.065008
2799.21,0.065073
2800.72,0.065308
2802.24,0.065349
2803.75,0.065151
2805.27,0.065116
2806.79,0.065081
2808.31,0.065099
2809.83,0.065193
2811.35,0.065113
2812.88,0.065085
2814.41,0.064935
2815.93,0.064848
2817.46,0.064941
2819.0,0.064855
2820.53,0.064721
2822.07,0.064828
2823.6,0.065049
2825.14,0.06496
2826.68,0.064746
2828.22,0.064578
2829.77,0.064534
2831.31,0.06472
2832.86,0.064739
2834.41,0.064668
2835.96,0.064888
2837.51,0.06486
2839.07,0.064716
2840.62,0.064663
2842.18,0.064789
2843.74,0.064697
2845.3,0.064553
2846.86,0.064548
2848.43,0.064713
2849.99,0.064705
2851.56,0.064586
2853.13,0.064643
2854.7,0.064527
2856.27,0.064521
2857.85,0.064717
2859.42,0.064587
2861.0,0.064433
2862.58,0.064487
2864.16,0.064488
2865.75,0.064457
2867.33,0.064415
2868.92,0.064286
2870.51,0.064332
2872.1,0.064483
2873.69,0.06442
2875.28,0.06431
2876.88,0.064358
2878.48,0.064394
2880.07,0.064573
2881.68,0.064694
2883.28,0.064517
2884.88,0.064396
2886.49,0.064309
2888.1,0.064358
2889.71,0.064431
2891.32,0.064233
2892.93,0.064291
2894.55,0.064538
2896.16,0.064515
2897.78,0.064361
2899.4,0.064197
2901.03,0.064214
2902.65,0.064366
2904.28,0.064328
2905.91,0.06438
2907.54,0.064391
2909.17,0.064235
2910.8,0.064118
2912.44,0.064146
2914.07,0.064216
2915.71,0.06427
2917.35,0.064177
2918.99,0.064171
2920.64,0.064287
2922.29,0.064237
2923.93,0.064014
2925.58,0.064144
2927.24,0.064367
2928.89,0.064339
2930.55,0.064235
2932.2,0.064119
2933.86,0.064018
2935.52,0.064018
2937.19,0.064165
2938.85,0.064258
2940.52,0.064254
2942.19,0.064151
2943.86,0.064114
2945.53,0.064182
2947.21,0.064046
2948.88,0.063787
2950.56,0.063868
2952.24,0.064153
2953.92,0.064224
2955.61,0.064112
2957.29,0.06411
2958.98,0.064055
2960.67,0.063914
2962.36,0.063799
2964.06,0.063921
2965.75,0.064031
2967.45,0.063912
2969.15,0.063854
2970.85,0.063984
2972.55,0.063923
2974.26,0.06375
2975.97,0.063812
2977.68,0.063726
2979.39,0.063749
2981.1,0.063773
2982.82,0.063672
2984.53,0.063727
2986.25,0.063899
2987.97,0.063846
2989.7,0.063875
2991.42,0.063843
2993.15,0.063787
2994.88,0.063795
2996.61,0.063636
2998.34,0.063699
3000.08,0.063756
3001.82,0.063766
3003.55,0.063915
3005.3,0.063969
3007.04,0.063883
3008.78,0.064026
3010.53,0.064058
3012.28,0.063893
3014.03,0.063763
3015.79,0.063763
3017.54,0.063843
3019.3,0.063833
3021.06,0.063767
3022.82,0.063774
3024.58,0.063792
3026.35,0.063704
3028.12,0.063695
3029.89,0.06387
3031.66,0.063952
3033.43,0.063895
3035.21,0.063903
3036.99,0.064031
3038.77,0.064104
3040.55,0.064063
3042.33,0.064047
3044.12,0.064042
3045.91,0.06403
3047.7,0.064039
3049.49,0.064027
3051.29,0.064049
3053.08,0.064
3054.88,0.063878
3056.68,0.063795
3058.49,0.063939
3060.29,0.06412
3062.1,0.064237
3063.91,0.064171
3065.72,0.064092
3067.54,0.06406
3069.35,0.064083
3071.17,0.064058
3072.99,0.064065
3074.81,0.064007
3076.64,0.063824
3078.47,0.063729
3080.29,0.063795
3082.13,0.06385
3083.96,0.063891
3085.79,0.063826
3087.63,0.063926
3089.47,0.064136
3091.31,0.064044
3093.16,0.063812
3095.01,0.063821
3096.85,0.06409
3098.71,0.064131
3100.56,0.064084
3102.41,0.064029
3104.27,0.064034
3106.13,0.064002
3107.99,0.064005
3109.86,0.064037
3111.73,0.064103
3113.59,0.06405
3115.47,0.063932
3117.34,0.063968
3119.21,0.064155
3121.09,0.064119
3122.97,0.06405
3124.86,0.064088
3126.74,0.06386
3128.63,0.063783
3130.52,0.063951
3132.41,0.063924
3134.3,0.063839
3136.2,0.064046
3138.1,0.0642
3140.0,0.064194
3141.9,0.06412
3143.81,0.064148
3145.71,0.064193
3147.62,0.064107
3149.54,0.063938
3151.45,0.063929
3153.37,0.063964
3155.29,0.064057
3157.21,0.064003
3159.13,0.063983
3161.06,0.064014
3162.99,0.064077
3164.92,0.064002
3166.85,0.063885
3168.79,0.064021
3170.72,0.064077
3172.67,0.064043
3174.61,0.063965
3176.55,0.064016
3178.5,0.064019
3180.45,0.063909
3182.4,0.063949
3184.36,0.064
3186.32,0.063962
3188.27,0.063964
3190.24,0.064092
3192.2,0.064149
3194.17,0.064072
3196.14,0.064037
3198.11,0.064028
3200.08,0.064034
3202.06,0.064058
3204.04,0.063995
3206.02,0.063977
3208.0,0.063965
3209.99,0.063986
3211.98,0.064006
3213.97,0.063976
3215.96,0.063991
3217.96,0.064043
3219.96,0.064107
3221.96,0.064047
3223.96,0.063938
3225.97,0.063923
3227.98,0.063909
3229.99,0.064058
3232.0,0.064124
3234.02,0.064145
3236.04,0.064117
3238.06,0.064132
3240.08,0.064049
3242.11,0.063912
3244.14,0.063895
3246.17,0.064058
3248.2,0.064125
3250.24,0.064107
3252.28,0.064085
3254.32,0.064014
3256.37,0.063955
3258.41,0.064001
3260.46,0.063978
3262.51,0.063955
3264.57,0.063916
3266.63,0.063864
3268.69,0.063865
3270.75,0.063887
3272.81,0.063998
3274.88,0.064037
3276.95,0.064041
3279.02,0.064036
3281.1,0.063982
3283.18,0.063991
3285.26,0.06394
3287.34,0.063935
3289.43,0.063971
3291.51,0.06395
3293.61,0.064027
3295.7,0.064139
3297.8,0.064075
3299.9,0.063988
3302.0,0.063994
3304.1,0.064033
3306.21,0.064071
3308.32,0.064041
3310.43,0.063904
3312.55,0.063896
3314.66,0.06402
3316.79,0.064021
3318.91,0.063975
3321.03,0.064
3323.16,0.064041
3325.29,0.064043
3327.43,0.064025
3329.57,0.064121
3331.71,0.064106
3333.85,0.064063
3335.99,0.064117
3338.14,0.064072
3340.29,0.064104
3342.45,0.06409
3344.6,0.064021
3346.76,0.063955
3348.92,0.063917
3351.09,0.063943
3353.26,0.063884
3355.43,0.063912
3357.6,0.063833
3359.78,0.063773
3361.96,0.06389
3364.14,0.064014
3366.32,0.063998
3368.51,0.063966
3370.7,0.063985
3372.89,0.064099
3375.09,0.064147
3377.29,0.064123
3379.49,0.064037
3381.69,0.064014
3383.9,0.064042
3386.11,0.064073
3388.32,0.063984
3390.54,0.063899
3392.76,0.064008
3394.98,0.064056
3397.21,0.063949
3399.43,0.063893
3401.66,0.063948
3403.9,0.063992
3406.13,0.064047
3408.37,0.064074
3410.61,0.06401
3412.86,0.063985
3415.11,0.063916
3417.36,0.063974
3419.61,0.064052
3421.87,0.064038
3424.13,0.064078
3426.39,0.064019
3428.66,0.063872
3430.93,0.063842
3433.2,0.063831
3435.48,0.063913
3437.76,0.064046
3440.04,0.064029
3442.32,0.063979
3444.61,0.063955
3446.9,0.063892
3449.19,0.063893
3451.49,0.063835
3453.79,0.063847
3456.09,0.063947
3458.4,0.063913
3460.7,0.063823
3463.02,0.063936
3465.33,0.063982
3467.65,0.063892
3469.97,0.064004
3472.29,0.064092
3474.62,0.064071
3476.95,0.06401
3479.29,0.063887
3481.62,0.063859
3483.96,0.063966
3486.3,0.064096
3488.65,0.06414
3491.0,0.064113
3493.35,0.064137
3495.71,0.064152
3498.07,0.064074
3500.43,0.064058
3502.79,0.064178
3505.16,0.064174
3507.53,0.064207
3509.91,0.064281
3512.29,0.064294
3514.67,0.064265
3517.05,0.064374
3519.44,0.064388
3521.83,0.064285
3524.23,0.064253
3526.62,0.064345
3529.02,0.064433
3531.43,0.064353
3533.83,0.064268
3536.24,0.064227
3538.66,0.064252
3541.08,0.064296
3543.5,0.064341
3545.92,0.064392
3548.35,0.064339
3550.78,0.064391
3553.21,0.064509
3555.65,0.064529
3558.09,0.064481
3560.53,0.064463
3562.98,0.064522
3565.43,0.06455
3567.88,0.06449
3570.34,0.064525
3572.8,0.064523
3575.27,0.064522
3577.73,0.064622
3580.2,0.064671
3582.68,0.064649
3585.16,0.064572
3587.64,0.064489
3590.12,0.064602
3592.61,0.064722
3595.1,0.064724
3597.6,0.064765
3600.09,0.064848
3602.6,0.06472
3605.1,0.064687
3607.61,0.064772
3610.12,0.064754
3612.64,0.064801
3615.16,0.064823
3617.68,0.064836
3620.21,0.064883
3622.74,0.064908
3625.27,0.064875
3627.81,0.064849
3630.35,0.064926
3632.89,0.065012
3635.44,0.064996
3637.99,0.06488
3640.54,0.064826
3643.1,0.064923
3645.66,0.064957
3648.23,0.064983
3650.8,0.064955
3653.37,0.064918
3655.95,0.065
3658.53,0.065087
3661.11,0.065067
3663.7,0.064979
3666.29,0.064968
3668.89,0.065113
3671.48,0.065115
3674.09,0.065093
3676.69,0.065112
3679.3,0.065133
3681.91,0.06517
3684.53,0.065207
3687.15,0.065179
3689.78,0.06508
3692.4,0.065071
3695.04,0.065085
3697.67,0.065118
3700.31,0.065174
3702.95,0.065231
3705.6,0.065304
3708.25,0.065322
3710.91,0.065281
3713.56,0.065286
3716.23,0.065293
3718.89,0.065228
3721.56,0.065252
3724.23,0.065324
3726.91,0.065409
3729.59,0.065428
3732.28,0.065382
3734.97,0.065415
3737.66,0.065444
3740.36,0.065416
3743.06,0.065487
3745.76,0.065544
3748.47,0.065471
3751.18,0.065475
3753.9,0.06547
3756.62,0.065457
