Database of Origin,University of Winnipeg Spectrophotometer Facility
Sample Description,9.2. MAGNETITE: Merged RELAB & Nicole / Merged at 2.5 um / different viewing geometry
Date Added,2016-07-15 22:03:00.317645

Data ID,RPN_MAG_14          
Sample ID,MAG114
Mineral Name,Magnetite
Grain Size,<45
Viewing Geometry,30 / 0 | 30
Resolution,1.2-129
Material Class,Magnetite

Wavelength
305.0,0.026513
310.0,0.027393
315.0,0.028358
320.0,0.028273
325.0,0.029117
330.0,0.028662
335.0,0.029126
340.0,0.030665
345.0,0.031496
350.0,0.031256
355.0,0.031446
360.0,0.031602
365.0,0.031682
370.0,0.032011
375.0,0.032678
380.0,0.032144
385.0,0.032439
390.0,0.032736
395.0,0.033246
400.0,0.033153
405.0,0.033913
410.0,0.034629
415.0,0.034824
420.0,0.034953
425.0,0.035227
430.0,0.035752
435.0,0.035959
440.0,0.036197
445.0,0.036313
450.0,0.036569
455.0,0.037022
460.0,0.037041
465.0,0.037208
470.0,0.037427
475.0,0.037521
480.0,0.037792
485.0,0.03815
490.0,0.038438
495.0,0.038745
500.0,0.039139
505.0,0.039489
510.0,0.039889
515.0,0.040407
520.0,0.040836
525.0,0.04131
530.0,0.042058
535.0,0.042535
540.0,0.043046
545.0,0.043733
550.0,0.044273
555.0,0.044914
560.0,0.045578
565.0,0.046139
570.0,0.047055
575.0,0.047912
580.0,0.048703
585.0,0.049426
590.0,0.050169
595.0,0.050919
600.0,0.0516
605.0,0.052227
610.0,0.052914
615.0,0.053406
620.0,0.053948
625.0,0.054599
630.0,0.055065
635.0,0.055623
640.0,0.056004
645.0,0.056677
650.0,0.057075
655.0,0.057506
660.0,0.057799
665.0,0.058328
670.0,0.058814
675.0,0.059128
680.0,0.059497
685.0,0.060001
690.0,0.06014
695.0,0.060572
700.0,0.060684
705.0,0.060965
710.0,0.061522
715.0,0.061837
720.0,0.062317
725.0,0.062517
730.0,0.062869
735.0,0.063288
740.0,0.063508
745.0,0.063832
750.0,0.064184
755.0,0.064229
760.0,0.064346
765.0,0.064564
770.0,0.064631
775.0,0.064757
780.0,0.064937
785.0,0.065104
790.0,0.065335
795.0,0.065469
800.0,0.06542
805.0,0.065754
810.0,0.065713
815.0,0.065643
820.0,0.066202
825.0,0.065866
830.0,0.065602
835.0,0.066177
840.0,0.066035
845.0,0.066262
850.0,0.066012
855.0,0.066171
860.0,0.066414
865.0,0.066003
870.0,0.065978
875.0,0.06595
880.0,0.066172
885.0,0.066048
890.0,0.065717
895.0,0.065933
900.0,0.065891
905.0,0.065303
910.0,0.065055
915.0,0.06562
920.0,0.065656
925.0,0.065702
930.0,0.065629
935.0,0.0656
940.0,0.066078
945.0,0.066055
950.0,0.065893
955.0,0.06595
960.0,0.065966
965.0,0.065934
970.0,0.065557
975.0,0.06574
980.0,0.066037
985.0,0.065859
990.0,0.065607
995.0,0.066046
1000.0,0.06607
1005.0,0.066189
1010.0,0.06589
1015.0,0.065845
1020.0,0.065404
1025.0,0.065354
1030.0,0.065037
1035.0,0.065374
1040.0,0.065314
1045.0,0.065104
1050.0,0.065453
1055.0,0.065381
1060.0,0.06513
1065.0,0.065381
1070.0,0.065235
1075.0,0.065221
1080.0,0.065095
1085.0,0.065179
1090.0,0.065213
1095.0,0.065086
1100.0,0.06512
1105.0,0.065172
1110.0,0.065091
1115.0,0.06522
1120.0,0.065177
1125.0,0.065255
1130.0,0.065203
1135.0,0.06524
1140.0,0.06547
1145.0,0.06516
1150.0,0.065175
1155.0,0.065223
1160.0,0.065283
1165.0,0.065403
1170.0,0.065344
1175.0,0.065068
1180.0,0.06531
1185.0,0.065385
1190.0,0.06552
1195.0,0.065739
1200.0,0.065326
1205.0,0.065293
1210.0,0.065727
1215.0,0.065381
1220.0,0.065434
1225.0,0.065558
1230.0,0.065204
1235.0,0.065537
1240.0,0.065711
1245.0,0.065659
1250.0,0.065549
1255.0,0.065475
1260.0,0.065635
1265.0,0.065655
1270.0,0.065686
1275.0,0.065721
1280.0,0.065674
1285.0,0.065492
1290.0,0.065651
1295.0,0.065742
1300.0,0.065781
1305.0,0.065858
1310.0,0.065821
1315.0,0.066049
1320.0,0.065826
1325.0,0.06596
1330.0,0.066048
1335.0,0.066118
1340.0,0.066079
1345.0,0.066091
1350.0,0.066277
1355.0,0.066386
1360.0,0.066211
1365.0,0.066285
1370.0,0.066279
1375.0,0.066281
1380.0,0.066229
1385.0,0.066285
1390.0,0.065832
1395.0,0.06634
1400.0,0.066413
1405.0,0.066493
1410.0,0.066644
1415.0,0.066437
1420.0,0.066603
1425.0,0.0666
1430.0,0.066761
1435.0,0.066725
1440.0,0.066781
1445.0,0.06694
1450.0,0.066958
1455.0,0.066984
1460.0,0.066928
1465.0,0.066965
1470.0,0.067066
1475.0,0.067168
1480.0,0.06706
1485.0,0.067371
1490.0,0.067252
1495.0,0.067527
1500.0,0.067578
1505.0,0.067328
1510.0,0.067504
1515.0,0.067358
1520.0,0.067697
1525.0,0.06757
1530.0,0.067902
1535.0,0.068505
1540.0,0.067934
1545.0,0.068349
1550.0,0.068016
1555.0,0.068385
1560.0,0.068116
1565.0,0.068397
1570.0,0.068323
1575.0,0.068337
1580.0,0.068708
1585.0,0.068572
1590.0,0.069022
1595.0,0.068884
1600.0,0.068254
1605.0,0.068815
1610.0,0.068682
1615.0,0.068817
1620.0,0.068818
1625.0,0.069127
1630.0,0.068892
1635.0,0.068974
1640.0,0.069272
1645.0,0.068806
1650.0,0.069326
1655.0,0.069223
1660.0,0.069123
1665.0,0.069717
1670.0,0.069743
1675.0,0.069593
1680.0,0.069982
1685.0,0.070001
1690.0,0.070049
1695.0,0.06987
1700.0,0.070442
1705.0,0.070155
1710.0,0.070399
1715.0,0.070546
1720.0,0.0703
1725.0,0.070496
1730.0,0.070571
1735.0,0.070004
1740.0,0.070733
1745.0,0.070469
1750.0,0.070394
1755.0,0.070657
1760.0,0.070048
1765.0,0.070847
1770.0,0.070578
1775.0,0.070908
1780.0,0.070752
1785.0,0.070694
1790.0,0.070545
1795.0,0.070772
1800.0,0.070837
1805.0,0.07107
1810.0,0.071418
1815.0,0.071051
1820.0,0.071186
1825.0,0.071302
1830.0,0.071479
1835.0,0.071477
1840.0,0.071536
1845.0,0.071433
1850.0,0.071363
1855.0,0.071637
1860.0,0.071649
1865.0,0.071723
1870.0,0.071966
1875.0,0.071786
1880.0,0.071917
1885.0,0.071873
1890.0,0.071812
1895.0,0.071731
1900.0,0.072002
1905.0,0.072101
1910.0,0.072066
1915.0,0.071846
1920.0,0.072099
1925.0,0.071973
1930.0,0.072034
1935.0,0.072013
1940.0,0.071945
1945.0,0.072104
1950.0,0.072156
1955.0,0.072055
1960.0,0.072337
1965.0,0.072091
1970.0,0.072581
1975.0,0.07225
1980.0,0.072276
1985.0,0.072123
1990.0,0.072385
1995.0,0.072473
2000.0,0.072556
2005.0,0.072621
2010.0,0.072695
2015.0,0.072686
2020.0,0.072909
2025.0,0.073123
2030.0,0.072711
2035.0,0.072851
2040.0,0.072783
2045.0,0.073187
2050.0,0.073371
2055.0,0.073241
2060.0,0.073082
2065.0,0.07326
2070.0,0.073052
2075.0,0.073319
2080.0,0.073548
2085.0,0.073548
2090.0,0.073361
2095.0,0.07354
2100.0,0.073699
2105.0,0.073669
2110.0,0.073677
2115.0,0.073651
2120.0,0.073977
2125.0,0.073809
2130.0,0.073827
2135.0,0.073608
2140.0,0.073957
2145.0,0.073731
2150.0,0.073864
2155.0,0.073776
2160.0,0.07389
2165.0,0.073762
2170.0,0.073788
2175.0,0.073864
2180.0,0.073746
2185.0,0.073835
2190.0,0.073947
2195.0,0.073842
2200.0,0.073673
2205.0,0.073856
2210.0,0.073978
2215.0,0.073968
2220.0,0.073875
2225.0,0.073874
2230.0,0.073899
2235.0,0.074118
2240.0,0.074142
2245.0,0.074126
2250.0,0.073898
2255.0,0.074205
2260.0,0.074116
2265.0,0.074161
2270.0,0.074316
2275.0,0.073991
2280.0,0.074172
2285.0,0.074362
2290.0,0.074453
2295.0,0.074395
2300.0,0.074403
2305.0,0.074437
2310.0,0.07461
2315.0,0.07426
2320.0,0.074257
2325.0,0.074596
2330.0,0.074285
2335.0,0.074275
2340.0,0.074399
2345.0,0.074105
2350.0,0.074448
2355.0,0.074487
2360.0,0.074406
2365.0,0.074725
2370.0,0.074559
2375.0,0.074721
2380.0,0.074726
2385.0,0.074825
2390.0,0.074543
2395.0,0.074488
2400.0,0.074952
2405.0,0.07487
2410.0,0.07485
2415.0,0.074765
2420.0,0.074893
2425.0,0.074902
2430.0,0.074809
2435.0,0.07474
2440.0,0.074896
2445.0,0.074976
2450.0,0.074914
2455.0,0.07499
2460.0,0.074813
2465.0,0.074797
2470.0,0.074925
2475.0,0.075283
2480.0,0.075095
2485.0,0.07492
2490.0,0.075045
2495.0,0.075168
2500.0,0.075101
2502.0,0.074895
2503.2,0.075045
2504.41,0.075218
2505.62,0.075059
2506.83,0.074943
2508.05,0.075143
2509.26,0.075295
2510.48,0.075222
2511.69,0.075091
2512.91,0.074891
2514.13,0.074884
2515.35,0.074965
2516.57,0.074867
2517.79,0.074978
2519.02,0.075086
2520.24,0.074913
2521.47,0.074726
2522.69,0.074611
2523.92,0.074432
2525.15,0.074586
2526.38,0.074805
2527.61,0.074856
2528.85,0.074851
2530.08,0.07475
2531.32,0.074569
2532.55,0.07457
2533.79,0.07468
2535.03,0.074673
2536.27,0.074781
2537.51,0.07488
2538.75,0.074686
2540.0,0.074545
2541.24,0.074634
2542.49,0.074619
2543.74,0.074549
2544.99,0.074586
2546.24,0.074533
2547.49,0.074518
2548.74,0.074432
2549.99,0.074555
2551.25,0.074847
2552.5,0.074674
2553.76,0.074474
2555.02,0.074665
2556.28,0.074836
2557.54,0.074577
2558.8,0.074543
2560.07,0.074476
2561.33,0.07441
2562.6,0.074384
2563.86,0.074332
2565.13,0.074473
2566.4,0.074617
2567.67,0.07458
2568.95,0.07461
2570.22,0.074237
2571.5,0.074134
2572.77,0.074485
2574.05,0.074497
2575.33,0.074335
2576.61,0.074404
2577.89,0.074349
2579.17,0.074041
2580.46,0.074084
2581.74,0.074265
2583.03,0.074116
2584.31,0.073925
2585.6,0.073824
2586.89,0.074095
2588.19,0.074085
2589.48,0.073896
2590.77,0.074011
2592.07,0.074097
2593.36,0.073967
2594.66,0.073885
2595.96,0.074075
2597.26,0.074205
2598.56,0.074297
2599.87,0.074252
2601.17,0.074002
2602.48,0.073995
2603.78,0.07413
2605.09,0.074106
2606.4,0.073993
2607.71,0.073812
2609.03,0.073737
2610.34,0.073785
2611.66,0.073978
2612.97,0.074073
2614.29,0.074019
2615.61,0.074028
2616.93,0.074031
2618.25,0.073996
2619.57,0.073949
2620.9,0.073802
2622.22,0.073674
2623.55,0.073815
2624.88,0.073871
2626.21,0.073746
2627.54,0.073635
2628.87,0.073888
2630.21,0.074018
2631.54,0.073835
2632.88,0.073684
2634.21,0.073597
2635.55,0.073704
2636.89,0.073634
2638.24,0.073446
2639.58,0.073443
2640.92,0.073493
2642.27,0.073537
2643.62,0.073483
2644.97,0.073507
2646.32,0.073425
2647.67,0.073314
2649.02,0.073469
2650.38,0.073412
2651.73,0.073182
2653.09,0.073182
2654.45,0.073379
2655.81,0.073454
2657.17,0.073393
2658.53,0.073274
2659.89,0.073154
2661.26,0.073238
2662.63,0.073287
2664.0,0.073248
2665.36,0.073194
2666.74,0.073171
2668.11,0.073248
2669.48,0.073097
2670.86,0.072905
2672.23,0.072862
2673.61,0.072813
2674.99,0.072729
2676.37,0.072614
2677.76,0.072475
2679.14,0.072679
2680.52,0.072655
2681.91,0.072626
2683.3,0.072604
2684.69,0.072447
2686.08,0.072336
2687.47,0.072367
2688.87,0.072138
2690.26,0.071935
2691.66,0.072083
2693.06,0.072017
2694.46,0.071692
2695.86,0.071587
2697.26,0.071705
2698.66,0.071735
2700.07,0.071712
2701.48,0.071675
2702.89,0.071526
2704.3,0.07146
2705.71,0.071417
2707.12,0.071339
2708.53,0.071361
2709.95,0.07125
2711.37,0.071082
2712.79,0.070938
2714.21,0.070839
2715.63,0.070742
2717.05,0.07075
2718.48,0.070642
2719.9,0.070361
2721.33,0.070171
2722.76,0.070098
2724.19,0.070065
2725.62,0.069999
2727.06,0.069725
2728.49,0.069429
2729.93,0.069295
2731.37,0.06911
2732.81,0.068989
2734.25,0.068854
2735.69,0.068783
2737.14,0.068649
2738.58,0.068373
2740.03,0.068047
2741.48,0.067856
2742.93,0.067734
2744.38,0.067489
2745.83,0.067114
2747.29,0.066869
2748.75,0.066857
2750.2,0.066619
2751.66,0.066411
2753.13,0.06632
2754.59,0.066129
2756.05,0.065932
2757.52,0.065702
2758.99,0.065485
2760.46,0.065222
2761.93,0.064959
2763.4,0.064815
2764.87,0.064686
2766.35,0.064376
2767.82,0.064256
2769.3,0.064152
2770.78,0.063977
2772.26,0.063843
2773.75,0.063649
2775.23,0.063362
2776.72,0.063167
2778.21,0.063086
2779.7,0.062976
2781.19,0.062763
2782.68,0.062558
2784.18,0.062283
2785.67,0.061952
2787.17,0.061896
2788.67,0.06182
2790.17,0.061607
2791.67,0.061435
2793.18,0.061312
2794.68,0.061062
2796.19,0.06082
2797.7,0.060733
2799.21,0.06065
2800.72,0.060577
2802.24,0.060405
2803.75,0.060105
2805.27,0.05999
2806.79,0.060006
2808.31,0.059878
2809.83,0.059693
2811.35,0.059633
2812.88,0.059564
2814.41,0.059383
2815.93,0.05937
2817.46,0.059232
2819.0,0.059091
2820.53,0.058989
2822.07,0.058939
2823.6,0.058811
2825.14,0.058681
2826.68,0.05853
2828.22,0.058327
2829.77,0.058237
2831.31,0.058339
2832.86,0.058374
2834.41,0.05832
2835.96,0.058256
2837.51,0.058041
2839.07,0.057989
2840.62,0.05809
2842.18,0.058035
2843.74,0.057925
2845.3,0.057846
2846.86,0.057823
2848.43,0.057718
2849.99,0.057769
2851.56,0.057556
2853.13,0.057423
2854.7,0.057377
2856.27,0.05733
2857.85,0.057336
2859.42,0.057178
2861.0,0.057033
2862.58,0.057111
2864.16,0.057193
2865.75,0.057106
2867.33,0.057065
2868.92,0.056929
2870.51,0.056891
2872.1,0.057007
2873.69,0.056947
2875.28,0.056755
2876.88,0.056626
2878.48,0.056582
2880.07,0.056416
2881.68,0.056297
2883.28,0.056318
2884.88,0.056433
2886.49,0.056406
2888.1,0.056399
2889.71,0.056374
2891.32,0.056117
2892.93,0.056049
2894.55,0.05596
2896.16,0.055832
2897.78,0.055764
2899.4,0.055678
2901.03,0.055733
2902.65,0.055691
2904.28,0.055681
2905.91,0.055729
2907.54,0.05578
2909.17,0.055638
2910.8,0.055437
2912.44,0.055454
2914.07,0.055505
2915.71,0.055319
2917.35,0.055214
2918.99,0.055218
2920.64,0.055263
2922.29,0.055302
2923.93,0.05522
2925.58,0.055022
2927.24,0.055038
2928.89,0.05513
2930.55,0.055211
2932.2,0.055283
2933.86,0.055229
2935.52,0.055159
2937.19,0.055084
2938.85,0.055103
2940.52,0.05508
2942.19,0.055005
2943.86,0.054943
2945.53,0.054862
2947.21,0.054926
2948.88,0.054928
2950.56,0.054912
2952.24,0.055028
2953.92,0.055126
2955.61,0.055164
2957.29,0.05509
2958.98,0.054997
2960.67,0.055014
2962.36,0.054936
2964.06,0.055016
2965.75,0.055065
2967.45,0.054971
2969.15,0.054904
2970.85,0.054851
2972.55,0.054816
2974.26,0.054888
2975.97,0.055026
2977.68,0.054962
2979.39,0.055012
2981.1,0.054976
2982.82,0.054906
2984.53,0.054989
2986.25,0.055021
2987.97,0.054987
2989.7,0.054933
2991.42,0.054936
2993.15,0.054908
2994.88,0.054793
2996.61,0.054788
2998.34,0.054866
3000.08,0.054983
3001.82,0.055098
3003.55,0.055047
3005.3,0.055008
3007.04,0.055148
3008.78,0.055128
3010.53,0.055074
3012.28,0.055208
3014.03,0.055274
3015.79,0.055226
3017.54,0.055193
3019.3,0.055289
3021.06,0.055308
3022.82,0.055329
3024.58,0.055371
3026.35,0.055289
3028.12,0.05518
3029.89,0.055263
3031.66,0.055516
3033.43,0.055572
3035.21,0.055485
3036.99,0.055483
3038.77,0.055585
3040.55,0.055706
3042.33,0.055723
3044.12,0.055763
3045.91,0.055907
3047.7,0.055928
3049.49,0.055757
3051.29,0.055663
3053.08,0.055712
3054.88,0.055775
3056.68,0.055747
3058.49,0.055792
3060.29,0.05596
3062.1,0.056076
3063.91,0.056093
3065.72,0.055991
3067.54,0.05589
3069.35,0.055884
3071.17,0.055964
3072.99,0.056071
3074.81,0.05613
3076.64,0.056091
3078.47,0.056068
3080.29,0.056171
3082.13,0.056127
3083.96,0.056078
3085.79,0.056132
3087.63,0.056198
3089.47,0.056234
3091.31,0.056307
3093.16,0.056389
3095.01,0.056414
3096.85,0.056461
3098.71,0.056502
3100.56,0.056533
3102.41,0.05649
3104.27,0.056552
3106.13,0.056637
3107.99,0.056541
3109.86,0.056528
3111.73,0.056633
3113.59,0.056766
3115.47,0.056853
3117.34,0.05685
3119.21,0.056895
3121.09,0.056971
3122.97,0.057016
3124.86,0.056978
3126.74,0.056843
3128.63,0.056839
3130.52,0.057037
3132.41,0.05718
3134.3,0.057236
3136.2,0.057262
3138.1,0.057255
3140.0,0.057247
3141.9,0.057248
3143.81,0.05722
3145.71,0.057376
3147.62,0.057462
3149.54,0.057443
3151.45,0.057553
3153.37,0.057641
3155.29,0.057666
3157.21,0.057733
3159.13,0.05778
3161.06,0.057769
3162.99,0.057768
3164.92,0.05783
3166.85,0.057933
3168.79,0.058027
3170.72,0.057996
3172.67,0.058032
3174.61,0.058098
3176.55,0.058181
3178.5,0.058242
3180.45,0.058294
3182.4,0.058367
3184.36,0.058376
3186.32,0.058411
3188.27,0.058532
3190.24,0.058631
3192.2,0.058622
3194.17,0.058641
3196.14,0.058729
3198.11,0.058783
3200.08,0.058885
3202.06,0.058978
3204.04,0.05899
3206.02,0.058921
3208.0,0.058897
3209.99,0.059038
3211.98,0.059183
3213.97,0.059249
3215.96,0.059372
3217.96,0.059388
3219.96,0.059336
3221.96,0.059346
3223.96,0.059468
3225.97,0.059539
3227.98,0.059618
3229.99,0.05973
3232.0,0.059846
3234.02,0.059877
3236.04,0.059823
3238.06,0.059872
3240.08,0.059995
3242.11,0.059941
3244.14,0.059887
3246.17,0.05998
3248.2,0.060067
3250.24,0.060035
3252.28,0.059995
3254.32,0.060168
3256.37,0.060335
3258.41,0.060455
3260.46,0.06049
3262.51,0.060363
3264.57,0.060421
3266.63,0.060547
3268.69,0.060629
3270.75,0.060642
3272.81,0.060626
3274.88,0.060661
3276.95,0.060775
3279.02,0.060891
3281.1,0.060954
3283.18,0.060948
3285.26,0.06095
3287.34,0.061023
3289.43,0.061039
3291.51,0.061167
3293.61,0.061255
3295.7,0.0612
3297.8,0.0612
3299.9,0.061283
3302.0,0.061431
3304.1,0.061512
3306.21,0.061571
3308.32,0.061597
3310.43,0.061671
3312.55,0.06175
3314.66,0.061729
3316.79,0.061776
3318.91,0.06179
3321.03,0.061726
3323.16,0.061783
3325.29,0.061825
3327.43,0.061894
3329.57,0.061972
3331.71,0.062118
3333.85,0.062229
3335.99,0.062249
3338.14,0.062231
3340.29,0.062247
3342.45,0.062285
3344.6,0.062252
3346.76,0.062356
3348.92,0.062495
3351.09,0.06254
3353.26,0.062574
3355.43,0.062567
3357.6,0.06253
3359.78,0.062593
3361.96,0.062696
3364.14,0.062749
3366.32,0.062796
3368.51,0.06276
3370.7,0.062746
3372.89,0.062813
3375.09,0.062894
3377.29,0.062959
3379.49,0.062905
3381.69,0.062881
3383.9,0.062923
3386.11,0.06307
3388.32,0.063233
3390.54,0.063251
3392.76,0.063124
3394.98,0.063095
3397.21,0.06313
3399.43,0.063195
3401.66,0.063244
3403.9,0.063236
3406.13,0.063339
3408.37,0.063455
3410.61,0.06344
3412.86,0.063367
3415.11,0.063353
3417.36,0.063388
3419.61,0.063463
3421.87,0.063489
3424.13,0.0635
3426.39,0.063551
3428.66,0.063696
3430.93,0.063815
3433.2,0.063846
3435.48,0.063918
3437.76,0.064021
3440.04,0.064019
3442.32,0.06413
3444.61,0.064268
3446.9,0.064343
3449.19,0.064385
3451.49,0.064397
3453.79,0.064384
3456.09,0.064387
3458.4,0.064459
3460.7,0.064555
3463.02,0.06463
3465.33,0.064668
3467.65,0.064759
3469.97,0.064779
3472.29,0.064829
3474.62,0.064917
3476.95,0.064966
3479.29,0.06501
3481.62,0.064974
3483.96,0.064913
3486.3,0.065036
3488.65,0.065115
3491.0,0.065162
3493.35,0.065216
3495.71,0.065291
3498.07,0.065346
3500.43,0.065375
3502.79,0.065379
3505.16,0.065458
3507.53,0.065556
3509.91,0.06555
3512.29,0.065539
3514.67,0.06568
3517.05,0.065797
3519.44,0.065803
3521.83,0.065826
3524.23,0.065945
3526.62,0.066051
3529.02,0.066087
3531.43,0.066151
3533.83,0.066221
3536.24,0.06629
3538.66,0.066362
3541.08,0.066463
3543.5,0.066483
3545.92,0.066444
3548.35,0.066487
3550.78,0.066483
3553.21,0.066565
3555.65,0.066728
3558.09,0.066823
3560.53,0.066801
3562.98,0.066827
3565.43,0.066894
3567.88,0.066923
3570.34,0.066977
3572.8,0.067013
3575.27,0.067129
3577.73,0.067227
3580.2,0.067235
3582.68,0.06722
3585.16,0.067312
3587.64,0.06739
3590.12,0.067361
3592.61,0.067361
3595.1,0.067502
3597.6,0.067613
3600.09,0.067658
3602.6,0.067707
3605.1,0.067723
3607.61,0.067718
3610.12,0.067723
3612.64,0.067793
3615.16,0.067919
3617.68,0.068036
3620.21,0.068043
3622.74,0.06803
3625.27,0.068059
3627.81,0.068147
3630.35,0.068257
3632.89,0.068334
3635.44,0.068343
3637.99,0.06834
3640.54,0.068377
3643.1,0.068417
3645.66,0.068504
3648.23,0.068567
3650.8,0.068562
3653.37,0.068604
3655.95,0.068667
3658.53,0.068807
3661.11,0.068828
3663.7,0.068852
3666.29,0.068905
3668.89,0.068963
3671.48,0.069025
3674.09,0.069139
3676.69,0.069183
3679.3,0.069276
3681.91,0.069296
3684.53,0.069213
3687.15,0.069235
3689.78,0.069383
3692.4,0.069487
3695.04,0.069412
3697.67,0.069462
3700.31,0.069573
3702.95,0.069582
3705.6,0.069525
3708.25,0.069568
3710.91,0.069672
3713.56,0.069744
3716.23,0.069803
3718.89,0.069862
3721.56,0.069932
3724.23,0.069992
3726.91,0.069976
3729.59,0.069981
3732.28,0.070045
3734.97,0.070114
3737.66,0.070158
3740.36,0.070201
3743.06,0.070206
3745.76,0.070258
3748.47,0.070366
3751.18,0.070488
