Database of Origin,University of Winnipeg Spectrophotometer Facility
Sample Description,9.2. MAGNETITE: Merged RELAB & Nicole / Merged at 2.5 um / different viewing geometry
Date Added,2016-07-15 22:03:00.121663

Data ID,RPN_MAG_06          
Sample ID,MAG106
Mineral Name,Magnetite
Grain Size,<45
Viewing Geometry,30 / 0 | 30
Resolution,1.2-129
Material Class,Magnetite

Wavelength
305.0,0.030955
310.0,0.031816
315.0,0.031259
320.0,0.032256
325.0,0.032307
330.0,0.033267
335.0,0.033307
340.0,0.03368
345.0,0.033658
350.0,0.033794
355.0,0.033822
360.0,0.033862
365.0,0.033945
370.0,0.034241
375.0,0.034135
380.0,0.034101
385.0,0.034117
390.0,0.034097
395.0,0.034229
400.0,0.03423
405.0,0.034433
410.0,0.034283
415.0,0.034377
420.0,0.034446
425.0,0.034684
430.0,0.034634
435.0,0.034715
440.0,0.034608
445.0,0.034488
450.0,0.034431
455.0,0.034572
460.0,0.0346
465.0,0.034655
470.0,0.03464
475.0,0.034653
480.0,0.03466
485.0,0.034767
490.0,0.034736
495.0,0.034925
500.0,0.034928
505.0,0.035041
510.0,0.035003
515.0,0.03535
520.0,0.035188
525.0,0.035386
530.0,0.035507
535.0,0.035772
540.0,0.035835
545.0,0.036158
550.0,0.036236
555.0,0.036409
560.0,0.036676
565.0,0.036767
570.0,0.036842
575.0,0.037059
580.0,0.037232
585.0,0.037358
590.0,0.037463
595.0,0.037576
600.0,0.037695
605.0,0.037814
610.0,0.038042
615.0,0.038319
620.0,0.038515
625.0,0.038716
630.0,0.038975
635.0,0.039089
640.0,0.039177
645.0,0.039336
650.0,0.039382
655.0,0.039444
660.0,0.039554
665.0,0.039566
670.0,0.039571
675.0,0.039608
680.0,0.039794
685.0,0.039661
690.0,0.039674
695.0,0.039708
700.0,0.040139
705.0,0.039724
710.0,0.039605
715.0,0.039529
720.0,0.039819
725.0,0.039906
730.0,0.039951
735.0,0.039924
740.0,0.039958
745.0,0.040052
750.0,0.039912
755.0,0.040049
760.0,0.040011
765.0,0.04012
770.0,0.039886
775.0,0.039926
780.0,0.040292
785.0,0.040128
790.0,0.04018
795.0,0.04043
800.0,0.040351
805.0,0.040552
810.0,0.040724
815.0,0.040746
820.0,0.040966
825.0,0.040945
830.0,0.040941
835.0,0.04116
840.0,0.041346
845.0,0.041405
850.0,0.041431
855.0,0.041428
860.0,0.041108
865.0,0.041533
870.0,0.041421
875.0,0.041394
880.0,0.041267
885.0,0.041429
890.0,0.041191
895.0,0.041014
900.0,0.04094
905.0,0.041063
910.0,0.040912
915.0,0.041009
920.0,0.040845
925.0,0.040739
930.0,0.04071
935.0,0.040655
940.0,0.040489
945.0,0.040308
950.0,0.040207
955.0,0.040069
960.0,0.040236
965.0,0.040173
970.0,0.040068
975.0,0.039913
980.0,0.03997
985.0,0.039883
990.0,0.039675
995.0,0.039347
1000.0,0.039352
1005.0,0.039035
1010.0,0.038828
1015.0,0.038839
1020.0,0.038641
1025.0,0.038427
1030.0,0.038383
1035.0,0.038269
1040.0,0.038097
1045.0,0.037967
1050.0,0.037917
1055.0,0.037724
1060.0,0.037561
1065.0,0.037279
1070.0,0.037223
1075.0,0.037011
1080.0,0.036864
1085.0,0.036721
1090.0,0.036573
1095.0,0.036508
1100.0,0.036497
1105.0,0.036357
1110.0,0.036276
1115.0,0.036111
1120.0,0.036146
1125.0,0.035938
1130.0,0.035887
1135.0,0.035922
1140.0,0.035679
1145.0,0.035916
1150.0,0.035673
1155.0,0.035721
1160.0,0.035492
1165.0,0.035554
1170.0,0.035471
1175.0,0.035483
1180.0,0.035428
1185.0,0.035358
1190.0,0.035355
1195.0,0.035392
1200.0,0.035502
1205.0,0.035473
1210.0,0.035483
1215.0,0.035572
1220.0,0.035388
1225.0,0.035332
1230.0,0.035407
1235.0,0.03541
1240.0,0.035284
1245.0,0.035394
1250.0,0.035462
1255.0,0.035481
1260.0,0.035324
1265.0,0.035579
1270.0,0.03554
1275.0,0.035553
1280.0,0.035436
1285.0,0.035575
1290.0,0.03557
1295.0,0.03559
1300.0,0.03562
1305.0,0.035686
1310.0,0.035718
1315.0,0.035804
1320.0,0.035982
1325.0,0.03597
1330.0,0.036143
1335.0,0.036166
1340.0,0.036245
1345.0,0.036331
1350.0,0.036456
1355.0,0.036636
1360.0,0.036745
1365.0,0.036532
1370.0,0.036863
1375.0,0.036897
1380.0,0.03738
1385.0,0.036935
1390.0,0.037003
1395.0,0.037331
1400.0,0.037567
1405.0,0.037649
1410.0,0.037536
1415.0,0.03761
1420.0,0.037709
1425.0,0.0378
1430.0,0.037911
1435.0,0.03806
1440.0,0.038245
1445.0,0.038256
1450.0,0.038146
1455.0,0.038244
1460.0,0.038427
1465.0,0.038429
1470.0,0.038583
1475.0,0.038556
1480.0,0.038835
1485.0,0.03881
1490.0,0.038942
1495.0,0.03894
1500.0,0.039194
1505.0,0.039299
1510.0,0.039394
1515.0,0.039393
1520.0,0.03944
1525.0,0.039606
1530.0,0.039818
1535.0,0.03979
1540.0,0.039956
1545.0,0.040134
1550.0,0.040042
1555.0,0.040238
1560.0,0.040427
1565.0,0.040462
1570.0,0.040537
1575.0,0.040531
1580.0,0.040633
1585.0,0.040846
1590.0,0.041
1595.0,0.041089
1600.0,0.041227
1605.0,0.04135
1610.0,0.041375
1615.0,0.041619
1620.0,0.041645
1625.0,0.041719
1630.0,0.041914
1635.0,0.042056
1640.0,0.041925
1645.0,0.042183
1650.0,0.042356
1655.0,0.042209
1660.0,0.042288
1665.0,0.042554
1670.0,0.04258
1675.0,0.042663
1680.0,0.042776
1685.0,0.043013
1690.0,0.043013
1695.0,0.043057
1700.0,0.043315
1705.0,0.043386
1710.0,0.043446
1715.0,0.043565
1720.0,0.043756
1725.0,0.043698
1730.0,0.043872
1735.0,0.043876
1740.0,0.044097
1745.0,0.044241
1750.0,0.044286
1755.0,0.044266
1760.0,0.044302
1765.0,0.04443
1770.0,0.044546
1775.0,0.044622
1780.0,0.044657
1785.0,0.04499
1790.0,0.045092
1795.0,0.045219
1800.0,0.045376
1805.0,0.045492
1810.0,0.0458
1815.0,0.045889
1820.0,0.045951
1825.0,0.045934
1830.0,0.046118
1835.0,0.046133
1840.0,0.045974
1845.0,0.046257
1850.0,0.046194
1855.0,0.046272
1860.0,0.046272
1865.0,0.046562
1870.0,0.046661
1875.0,0.046444
1880.0,0.046527
1885.0,0.04695
1890.0,0.047159
1895.0,0.04709
1900.0,0.047504
1905.0,0.047224
1910.0,0.047314
1915.0,0.047295
1920.0,0.047669
1925.0,0.047331
1930.0,0.047791
1935.0,0.047798
1940.0,0.047794
1945.0,0.047946
1950.0,0.047996
1955.0,0.048202
1960.0,0.048033
1965.0,0.048061
1970.0,0.048374
1975.0,0.048293
1980.0,0.048361
1985.0,0.048374
1990.0,0.048442
1995.0,0.048706
2000.0,0.048761
2005.0,0.048786
2010.0,0.048946
2015.0,0.04898
2020.0,0.049121
2025.0,0.04905
2030.0,0.049076
2035.0,0.04918
2040.0,0.049229
2045.0,0.0494
2050.0,0.049429
2055.0,0.049708
2060.0,0.049605
2065.0,0.04955
2070.0,0.049661
2075.0,0.049805
2080.0,0.049815
2085.0,0.049984
2090.0,0.050102
2095.0,0.050183
2100.0,0.050316
2105.0,0.050202
2110.0,0.050467
2115.0,0.05061
2120.0,0.050636
2125.0,0.050742
2130.0,0.050741
2135.0,0.050847
2140.0,0.050811
2145.0,0.051288
2150.0,0.051066
2155.0,0.051154
2160.0,0.051028
2165.0,0.051439
2170.0,0.051403
2175.0,0.051395
2180.0,0.051799
2185.0,0.05193
2190.0,0.052266
2195.0,0.052325
2200.0,0.052288
2205.0,0.052402
2210.0,0.052552
2215.0,0.052739
2220.0,0.052786
2225.0,0.052822
2230.0,0.053002
2235.0,0.053083
2240.0,0.053153
2245.0,0.053383
2250.0,0.05343
2255.0,0.053421
2260.0,0.053749
2265.0,0.053679
2270.0,0.053957
2275.0,0.054113
2280.0,0.05424
2285.0,0.054297
2290.0,0.054329
2295.0,0.05478
2300.0,0.054952
2305.0,0.055155
2310.0,0.055235
2315.0,0.055341
2320.0,0.055233
2325.0,0.055526
2330.0,0.055603
2335.0,0.055586
2340.0,0.055743
2345.0,0.055594
2350.0,0.055681
2355.0,0.055554
2360.0,0.0553
2365.0,0.055343
2370.0,0.054889
2375.0,0.055021
2380.0,0.05498
2385.0,0.055294
2390.0,0.055255
2395.0,0.055408
2400.0,0.055431
2405.0,0.055244
2410.0,0.055323
2415.0,0.055242
2420.0,0.055408
2425.0,0.055209
2430.0,0.055495
2435.0,0.055516
2440.0,0.055297
2445.0,0.055319
2450.0,0.055539
2455.0,0.055305
2460.0,0.055385
2465.0,0.05533
2470.0,0.055539
2475.0,0.055542
2480.0,0.055563
2485.0,0.055654
2490.0,0.055681
2495.0,0.055863
2500.0,0.055855
2502.0,0.055745
2503.2,0.055586
2504.41,0.0557
2505.62,0.055941
2506.83,0.055927
2508.05,0.055841
2509.26,0.055697
2510.48,0.055788
2511.69,0.055952
2512.91,0.056016
2514.13,0.056038
2515.35,0.055859
2516.57,0.05584
2517.79,0.055912
2519.02,0.056067
2520.24,0.056002
2521.47,0.055991
2522.69,0.056059
2523.92,0.056075
2525.15,0.056021
2526.38,0.055931
2527.61,0.055887
2528.85,0.05594
2530.08,0.056067
2531.32,0.05607
2532.55,0.056226
2533.79,0.056187
2535.03,0.05608
2536.27,0.056011
2537.51,0.056154
2538.75,0.056289
2540.0,0.056369
2541.24,0.056363
2542.49,0.056088
2543.74,0.055961
2544.99,0.056156
2546.24,0.056337
2547.49,0.056296
2548.74,0.056416
2549.99,0.056497
2551.25,0.056498
2552.5,0.056318
2553.76,0.056242
2555.02,0.056445
2556.28,0.05648
2557.54,0.056595
2558.8,0.056555
2560.07,0.056347
2561.33,0.056307
2562.6,0.056507
2563.86,0.05643
2565.13,0.056492
2566.4,0.056616
2567.67,0.056583
2568.95,0.05646
2570.22,0.056461
2571.5,0.056725
2572.77,0.056761
2574.05,0.056671
2575.33,0.056806
2576.61,0.056517
2577.89,0.056458
2579.17,0.056872
2580.46,0.056877
2581.74,0.056792
2583.03,0.056921
2584.31,0.05683
2585.6,0.05699
2586.89,0.056871
2588.19,0.056898
2589.48,0.057106
2590.77,0.057136
2592.07,0.05709
2593.36,0.056838
2594.66,0.056747
2595.96,0.057239
2597.26,0.057523
2598.56,0.057291
2599.87,0.057074
2601.17,0.05718
2602.48,0.057328
2603.78,0.057377
2605.09,0.057255
2606.4,0.057291
2607.71,0.057365
2609.03,0.057341
2610.34,0.057488
2611.66,0.057596
2612.97,0.057388
2614.29,0.057268
2615.61,0.05751
2616.93,0.05738
2618.25,0.057423
2619.57,0.057469
2620.9,0.05731
2622.22,0.057439
2623.55,0.057558
2624.88,0.057552
2626.21,0.057597
2627.54,0.057701
2628.87,0.057793
2630.21,0.05771
2631.54,0.057797
2632.88,0.057975
2634.21,0.057839
2635.55,0.057978
2636.89,0.058085
2638.24,0.057845
2639.58,0.057913
2640.92,0.057996
2642.27,0.057908
2643.62,0.058046
2644.97,0.058032
2646.32,0.057871
2647.67,0.057826
2649.02,0.057929
2650.38,0.05814
2651.73,0.0582
2653.09,0.058132
2654.45,0.058156
2655.81,0.058174
2657.17,0.058157
2658.53,0.058063
2659.89,0.058159
2661.26,0.058189
2662.63,0.058001
2664.0,0.057937
2665.36,0.0581
2666.74,0.05824
2668.11,0.05827
2669.48,0.058294
2670.86,0.058096
2672.23,0.058291
2673.61,0.058141
2674.99,0.057992
2676.37,0.058028
2677.76,0.058103
2679.14,0.0581
2680.52,0.058146
2681.91,0.058327
2683.3,0.058263
2684.69,0.058312
2686.08,0.058338
2687.47,0.058359
2688.87,0.058343
2690.26,0.058331
2691.66,0.058319
2693.06,0.058191
2694.46,0.058142
2695.86,0.058152
2697.26,0.058075
2698.66,0.05812
2700.07,0.058293
2701.48,0.058236
2702.89,0.058106
2704.3,0.05825
2705.71,0.058302
2707.12,0.058308
2708.53,0.058275
2709.95,0.058098
2711.37,0.058127
2712.79,0.058354
2714.21,0.058396
2715.63,0.058314
2717.05,0.058385
2718.48,0.058412
2719.9,0.058276
2721.33,0.058146
2722.76,0.058336
2724.19,0.05816
2725.62,0.05832
2727.06,0.058526
2728.49,0.058568
2729.93,0.058625
2731.37,0.05851
2732.81,0.05837
2734.25,0.058289
2735.69,0.058422
2737.14,0.058665
2738.58,0.058526
2740.03,0.058423
2741.48,0.058573
2742.93,0.058684
2744.38,0.05866
2745.83,0.058526
2747.29,0.058595
2748.75,0.058765
2750.2,0.058709
2751.66,0.058666
2753.13,0.058649
2754.59,0.058572
2756.05,0.058722
2757.52,0.058971
2758.99,0.058904
2760.46,0.058756
2761.93,0.058698
2763.4,0.058692
2764.87,0.058689
2766.35,0.058658
2767.82,0.058777
2769.3,0.058786
2770.78,0.058733
2772.26,0.058742
2773.75,0.058784
2775.23,0.058732
2776.72,0.058662
2778.21,0.058661
2779.7,0.05871
2781.19,0.058781
2782.68,0.05888
2784.18,0.058869
2785.67,0.058827
2787.17,0.058749
2788.67,0.058673
2790.17,0.058618
2791.67,0.058503
2793.18,0.058523
2794.68,0.058761
2796.19,0.058852
2797.7,0.058863
2799.21,0.058733
2800.72,0.058499
2802.24,0.058428
2803.75,0.058606
2805.27,0.058838
2806.79,0.058812
2808.31,0.058698
2809.83,0.058725
2811.35,0.058757
2812.88,0.058661
2814.41,0.058696
2815.93,0.058847
2817.46,0.058849
2819.0,0.058811
2820.53,0.058768
2822.07,0.05869
2823.6,0.058778
2825.14,0.058872
2826.68,0.058862
2828.22,0.058762
2829.77,0.058749
2831.31,0.058708
2832.86,0.058632
2834.41,0.058565
2835.96,0.058648
2837.51,0.058836
2839.07,0.058897
2840.62,0.059013
2842.18,0.058913
2843.74,0.058865
2845.3,0.05897
2846.86,0.058963
2848.43,0.058994
2849.99,0.059102
2851.56,0.059116
2853.13,0.05901
2854.7,0.058988
2856.27,0.059066
2857.85,0.05914
2859.42,0.059197
2861.0,0.059146
2862.58,0.059077
2864.16,0.059102
2865.75,0.059102
2867.33,0.059161
2868.92,0.059213
2870.51,0.059223
2872.1,0.05926
2873.69,0.059242
2875.28,0.059313
2876.88,0.059381
2878.48,0.059308
2880.07,0.059247
2881.68,0.059223
2883.28,0.059192
2884.88,0.059287
2886.49,0.059305
2888.1,0.059268
2889.71,0.059398
2891.32,0.059541
2892.93,0.059485
2894.55,0.059504
2896.16,0.05956
2897.78,0.059571
2899.4,0.059595
2901.03,0.059601
2902.65,0.059592
2904.28,0.059565
2905.91,0.059516
2907.54,0.059495
2909.17,0.059607
2910.8,0.05962
2912.44,0.059581
2914.07,0.059623
2915.71,0.059683
2917.35,0.059684
2918.99,0.059614
2920.64,0.059556
2922.29,0.059657
2923.93,0.059833
2925.58,0.059897
2927.24,0.059915
2928.89,0.059991
2930.55,0.05999
2932.2,0.059909
2933.86,0.059923
2935.52,0.059927
2937.19,0.059956
2938.85,0.059908
2940.52,0.059852
2942.19,0.059814
2943.86,0.059897
2945.53,0.059943
2947.21,0.060044
2948.88,0.060053
2950.56,0.059963
2952.24,0.059901
2953.92,0.059875
2955.61,0.060056
2957.29,0.060162
2958.98,0.060129
2960.67,0.060126
2962.36,0.060149
2964.06,0.060111
2965.75,0.060102
2967.45,0.06011
2969.15,0.060127
2970.85,0.060106
2972.55,0.060183
2974.26,0.060295
2975.97,0.060194
2977.68,0.060143
2979.39,0.060224
2981.1,0.060311
2982.82,0.0603
2984.53,0.060138
2986.25,0.060011
2987.97,0.060169
2989.7,0.060313
2991.42,0.060356
2993.15,0.060228
2994.88,0.060173
2996.61,0.060281
2998.34,0.060338
3000.08,0.060417
3001.82,0.060359
3003.55,0.060298
3005.3,0.060311
3007.04,0.060278
3008.78,0.060372
3010.53,0.060379
3012.28,0.060423
3014.03,0.060461
3015.79,0.060392
3017.54,0.060455
3019.3,0.060512
3021.06,0.060513
3022.82,0.060552
3024.58,0.060563
3026.35,0.06049
3028.12,0.060479
3029.89,0.060607
3031.66,0.060687
3033.43,0.060689
3035.21,0.060732
3036.99,0.06081
3038.77,0.060804
3040.55,0.060808
3042.33,0.060857
3044.12,0.060914
3045.91,0.060927
3047.7,0.06088
3049.49,0.060866
3051.29,0.060916
3053.08,0.060821
3054.88,0.060772
3056.68,0.060778
3058.49,0.060824
3060.29,0.060979
3062.1,0.061086
3063.91,0.061113
3065.72,0.061056
3067.54,0.061086
3069.35,0.061047
3071.17,0.060926
3072.99,0.060935
3074.81,0.061055
3076.64,0.061124
3078.47,0.061125
3080.29,0.061163
3082.13,0.061195
3083.96,0.061209
3085.79,0.061177
3087.63,0.061152
3089.47,0.061171
3091.31,0.061206
3093.16,0.061143
3095.01,0.061105
3096.85,0.061179
3098.71,0.06122
3100.56,0.061265
3102.41,0.061279
3104.27,0.061279
3106.13,0.061291
3107.99,0.061376
3109.86,0.061415
3111.73,0.061332
3113.59,0.061291
3115.47,0.061348
3117.34,0.061405
3119.21,0.061286
3121.09,0.061239
3122.97,0.061322
3124.86,0.061399
3126.74,0.061492
3128.63,0.061473
3130.52,0.06141
3132.41,0.06138
3134.3,0.061344
3136.2,0.061384
3138.1,0.061415
3140.0,0.061408
3141.9,0.061464
3143.81,0.061572
3145.71,0.061587
3147.62,0.061547
3149.54,0.061502
3151.45,0.061524
3153.37,0.061574
3155.29,0.061561
3157.21,0.06152
3159.13,0.061547
3161.06,0.061609
3162.99,0.061584
3164.92,0.061505
3166.85,0.061506
3168.79,0.061516
3170.72,0.061581
3172.67,0.061586
3174.61,0.06156
3176.55,0.061567
3178.5,0.061635
3180.45,0.061697
3182.4,0.061701
3184.36,0.061648
3186.32,0.061621
3188.27,0.061707
3190.24,0.061684
3192.2,0.061642
3194.17,0.061712
3196.14,0.061743
3198.11,0.061762
3200.08,0.061808
3202.06,0.061854
3204.04,0.061736
3206.02,0.061704
3208.0,0.061621
3209.99,0.061624
3211.98,0.061679
3213.97,0.061722
3215.96,0.061747
3217.96,0.061776
3219.96,0.061765
3221.96,0.061732
3223.96,0.061786
3225.97,0.061885
3227.98,0.061906
3229.99,0.061964
3232.0,0.06199
3234.02,0.061931
3236.04,0.061876
3238.06,0.061859
3240.08,0.061823
3242.11,0.061783
3244.14,0.061804
3246.17,0.061869
3248.2,0.061826
3250.24,0.061714
3252.28,0.061772
3254.32,0.061936
3256.37,0.061937
3258.41,0.061882
3260.46,0.061898
3262.51,0.061903
3264.57,0.06191
3266.63,0.061875
3268.69,0.061912
3270.75,0.062005
3272.81,0.061974
3274.88,0.061931
3276.95,0.061894
3279.02,0.061861
3281.1,0.061911
3283.18,0.061986
3285.26,0.062027
3287.34,0.062014
3289.43,0.061909
3291.51,0.061921
3293.61,0.062029
3295.7,0.062018
3297.8,0.061933
3299.9,0.061928
3302.0,0.061983
3304.1,0.062032
3306.21,0.06212
3308.32,0.062135
3310.43,0.062054
3312.55,0.062071
3314.66,0.062065
3316.79,0.062031
3318.91,0.062017
3321.03,0.062025
3323.16,0.062069
3325.29,0.062137
3327.43,0.062159
3329.57,0.062153
3331.71,0.062182
3333.85,0.06219
3335.99,0.06214
3338.14,0.062087
3340.29,0.062036
3342.45,0.061994
3344.6,0.062045
3346.76,0.062179
3348.92,0.062276
3351.09,0.062261
3353.26,0.062235
3355.43,0.062231
3357.6,0.062111
3359.78,0.062065
3361.96,0.06215
3364.14,0.062236
3366.32,0.062172
3368.51,0.062102
3370.7,0.062114
3372.89,0.062144
3375.09,0.062201
3377.29,0.062263
3379.49,0.062221
3381.69,0.06219
3383.9,0.062229
3386.11,0.062337
3388.32,0.062317
3390.54,0.062244
3392.76,0.062254
3394.98,0.062206
3397.21,0.062202
3399.43,0.062278
3401.66,0.062337
3403.9,0.06235
3406.13,0.062325
3408.37,0.06229
3410.61,0.062322
3412.86,0.062345
3415.11,0.062329
3417.36,0.062352
3419.61,0.062372
3421.87,0.062367
3424.13,0.062444
3426.39,0.062517
3428.66,0.062508
3430.93,0.062486
3433.2,0.06241
3435.48,0.062425
3437.76,0.062446
3440.04,0.062384
3442.32,0.062357
3444.61,0.062409
3446.9,0.062457
3449.19,0.06248
3451.49,0.062476
3453.79,0.06239
3456.09,0.062395
3458.4,0.062401
3460.7,0.06238
3463.02,0.062386
3465.33,0.062404
3467.65,0.062374
3469.97,0.06232
3472.29,0.062267
3474.62,0.062259
3476.95,0.06223
3479.29,0.062292
3481.62,0.062355
3483.96,0.062446
3486.3,0.062481
3488.65,0.062464
3491.0,0.062531
3493.35,0.062582
3495.71,0.062538
3498.07,0.06245
3500.43,0.062447
3502.79,0.062537
3505.16,0.062547
3507.53,0.062556
3509.91,0.06252
3512.29,0.06244
3514.67,0.062437
3517.05,0.062469
3519.44,0.062465
3521.83,0.06254
3524.23,0.062602
3526.62,0.062572
3529.02,0.062605
3531.43,0.06261
3533.83,0.062589
3536.24,0.062595
3538.66,0.062637
3541.08,0.062636
3543.5,0.062589
3545.92,0.06256
3548.35,0.062576
3550.78,0.062599
3553.21,0.062551
3555.65,0.062532
3558.09,0.06255
3560.53,0.062538
3562.98,0.062541
3565.43,0.062591
3567.88,0.062621
3570.34,0.06269
3572.8,0.06272
3575.27,0.062656
3577.73,0.062645
3580.2,0.062715
3582.68,0.062778
3585.16,0.062805
3587.64,0.062796
3590.12,0.062681
3592.61,0.062664
3595.1,0.062752
3597.6,0.062764
3600.09,0.0627
3602.6,0.062708
3605.1,0.062725
3607.61,0.062777
3610.12,0.06283
3612.64,0.062819
3615.16,0.062824
3617.68,0.062879
3620.21,0.062858
3622.74,0.062859
3625.27,0.062837
3627.81,0.062853
3630.35,0.06287
3632.89,0.062868
3635.44,0.062923
3637.99,0.062897
3640.54,0.062821
3643.1,0.06291
3645.66,0.063004
3648.23,0.062994
3650.8,0.062942
3653.37,0.062932
3655.95,0.062947
3658.53,0.062973
3661.11,0.063033
3663.7,0.063082
3666.29,0.063107
3668.89,0.063078
3671.48,0.063024
3674.09,0.063042
3676.69,0.063039
3679.3,0.063049
3681.91,0.063105
3684.53,0.063102
3687.15,0.063093
3689.78,0.063099
3692.4,0.06314
3695.04,0.063194
3697.67,0.063188
3700.31,0.063121
3702.95,0.063128
3705.6,0.063152
3708.25,0.06315
3710.91,0.063167
3713.56,0.063241
3716.23,0.063231
3718.89,0.06322
3721.56,0.063231
3724.23,0.063267
3726.91,0.063317
3729.59,0.06334
3732.28,0.063319
3734.97,0.06331
3737.66,0.063306
3740.36,0.063302
3743.06,0.063301
3745.76,0.063332
3748.47,0.063285
3751.18,0.063278
3753.9,0.063345
3756.62,0.063379
