Database of Origin,University of Winnipeg Spectrophotometer Facility
Sample Description,9.2. MAGNETITE: Merged RELAB & Nicole / Merged at 2.5 um / different viewing geometry
Date Added,2016-07-15 22:03:00.090405

Data ID,RPN_MAG_05          
Sample ID,MAG105
Mineral Name,Magnetite
Grain Size,<45
Viewing Geometry,30 / 0 | 30
Resolution,1.2-129
Material Class,Magnetite

Wavelength
305.0,0.050295
310.0,0.048365
315.0,0.051149
320.0,0.050104
325.0,0.051166
330.0,0.05083
335.0,0.051183
340.0,0.051003
345.0,0.051188
350.0,0.051375
355.0,0.051533
360.0,0.051798
365.0,0.051276
370.0,0.051709
375.0,0.051624
380.0,0.051469
385.0,0.051377
390.0,0.051193
395.0,0.050918
400.0,0.050897
405.0,0.05064
410.0,0.050932
415.0,0.050784
420.0,0.050458
425.0,0.050329
430.0,0.05
435.0,0.049972
440.0,0.049464
445.0,0.048912
450.0,0.048699
455.0,0.048457
460.0,0.048324
465.0,0.048138
470.0,0.048034
475.0,0.047999
480.0,0.047856
485.0,0.04802
490.0,0.047931
495.0,0.047743
500.0,0.047671
505.0,0.047597
510.0,0.047458
515.0,0.047392
520.0,0.047467
525.0,0.047599
530.0,0.047672
535.0,0.047733
540.0,0.047775
545.0,0.047872
550.0,0.048013
555.0,0.048067
560.0,0.048072
565.0,0.04807
570.0,0.048105
575.0,0.048166
580.0,0.048137
585.0,0.04818
590.0,0.04812
595.0,0.048202
600.0,0.048181
605.0,0.048194
610.0,0.048555
615.0,0.048769
620.0,0.048897
625.0,0.04904
630.0,0.049158
635.0,0.049144
640.0,0.049007
645.0,0.049118
650.0,0.049091
655.0,0.048906
660.0,0.048793
665.0,0.048752
670.0,0.048415
675.0,0.04831
680.0,0.04824
685.0,0.047988
690.0,0.047987
695.0,0.047531
700.0,0.047376
705.0,0.047211
710.0,0.047023
715.0,0.046882
720.0,0.04673
725.0,0.046814
730.0,0.046249
735.0,0.046079
740.0,0.045953
745.0,0.045831
750.0,0.045559
755.0,0.04553
760.0,0.04521
765.0,0.045097
770.0,0.044542
775.0,0.044549
780.0,0.044173
785.0,0.044122
790.0,0.043778
795.0,0.043619
800.0,0.043704
805.0,0.043355
810.0,0.043066
815.0,0.042417
820.0,0.042442
825.0,0.04197
830.0,0.041885
835.0,0.041995
840.0,0.041541
845.0,0.04114
850.0,0.041364
855.0,0.040851
860.0,0.040867
865.0,0.041
870.0,0.040835
875.0,0.040249
880.0,0.040021
885.0,0.039599
890.0,0.040105
895.0,0.039605
900.0,0.039225
905.0,0.038977
910.0,0.039853
915.0,0.039344
920.0,0.039268
925.0,0.039194
930.0,0.038895
935.0,0.038882
940.0,0.038921
945.0,0.038608
950.0,0.038462
955.0,0.038562
960.0,0.038558
965.0,0.03857
970.0,0.038372
975.0,0.038127
980.0,0.037719
985.0,0.037764
990.0,0.0378
995.0,0.037686
1000.0,0.037605
1005.0,0.037366
1010.0,0.037747
1015.0,0.037147
1020.0,0.037155
1025.0,0.03724
1030.0,0.036988
1035.0,0.037112
1040.0,0.037058
1045.0,0.036869
1050.0,0.036959
1055.0,0.037067
1060.0,0.036938
1065.0,0.037114
1070.0,0.037111
1075.0,0.036939
1080.0,0.036899
1085.0,0.036959
1090.0,0.037242
1095.0,0.037236
1100.0,0.03728
1105.0,0.037198
1110.0,0.037348
1115.0,0.037462
1120.0,0.037319
1125.0,0.037702
1130.0,0.037854
1135.0,0.037742
1140.0,0.037884
1145.0,0.037893
1150.0,0.038044
1155.0,0.038292
1160.0,0.038361
1165.0,0.038305
1170.0,0.038569
1175.0,0.03842
1180.0,0.038798
1185.0,0.038885
1190.0,0.038901
1195.0,0.0394
1200.0,0.039095
1205.0,0.039515
1210.0,0.039551
1215.0,0.039856
1220.0,0.039744
1225.0,0.039856
1230.0,0.040246
1235.0,0.040228
1240.0,0.040669
1245.0,0.040681
1250.0,0.040712
1255.0,0.040897
1260.0,0.041012
1265.0,0.041
1270.0,0.041312
1275.0,0.041466
1280.0,0.041576
1285.0,0.041636
1290.0,0.0419
1295.0,0.04193
1300.0,0.042221
1305.0,0.04233
1310.0,0.042678
1315.0,0.042612
1320.0,0.042954
1325.0,0.043081
1330.0,0.043194
1335.0,0.043511
1340.0,0.043686
1345.0,0.043925
1350.0,0.0438
1355.0,0.044025
1360.0,0.043925
1365.0,0.043903
1370.0,0.044398
1375.0,0.045078
1380.0,0.044471
1385.0,0.044831
1390.0,0.04522
1395.0,0.045316
1400.0,0.045727
1405.0,0.045667
1410.0,0.046354
1415.0,0.046463
1420.0,0.046816
1425.0,0.046871
1430.0,0.047209
1435.0,0.047288
1440.0,0.047607
1445.0,0.047981
1450.0,0.048006
1455.0,0.047861
1460.0,0.048398
1465.0,0.048734
1470.0,0.048596
1475.0,0.049025
1480.0,0.049267
1485.0,0.049604
1490.0,0.049593
1495.0,0.049666
1500.0,0.049982
1505.0,0.05023
1510.0,0.050336
1515.0,0.05051
1520.0,0.050648
1525.0,0.050873
1530.0,0.051204
1535.0,0.051323
1540.0,0.051605
1545.0,0.05151
1550.0,0.051496
1555.0,0.051747
1560.0,0.052002
1565.0,0.052287
1570.0,0.052313
1575.0,0.052415
1580.0,0.05269
1585.0,0.05273
1590.0,0.052891
1595.0,0.053282
1600.0,0.053422
1605.0,0.053374
1610.0,0.053801
1615.0,0.053642
1620.0,0.054083
1625.0,0.054046
1630.0,0.054322
1635.0,0.054582
1640.0,0.054517
1645.0,0.054743
1650.0,0.054789
1655.0,0.055028
1660.0,0.055008
1665.0,0.054554
1670.0,0.055206
1675.0,0.0557
1680.0,0.055823
1685.0,0.055457
1690.0,0.055891
1695.0,0.055683
1700.0,0.056518
1705.0,0.056738
1710.0,0.056801
1715.0,0.056996
1720.0,0.057103
1725.0,0.057168
1730.0,0.05714
1735.0,0.057416
1740.0,0.057673
1745.0,0.057454
1750.0,0.057985
1755.0,0.058224
1760.0,0.058093
1765.0,0.058246
1770.0,0.058357
1775.0,0.058432
1780.0,0.05852
1785.0,0.058852
1790.0,0.058721
1795.0,0.059069
1800.0,0.059228
1805.0,0.059174
1810.0,0.059555
1815.0,0.059664
1820.0,0.059941
1825.0,0.059899
1830.0,0.060031
1835.0,0.060127
1840.0,0.059987
1845.0,0.060054
1850.0,0.060279
1855.0,0.060353
1860.0,0.060727
1865.0,0.060812
1870.0,0.060954
1875.0,0.060697
1880.0,0.06102
1885.0,0.061366
1890.0,0.061447
1895.0,0.061646
1900.0,0.061831
1905.0,0.061642
1910.0,0.061886
1915.0,0.062049
1920.0,0.062094
1925.0,0.062107
1930.0,0.062419
1935.0,0.062313
1940.0,0.062445
1945.0,0.062351
1950.0,0.062584
1955.0,0.06279
1960.0,0.062962
1965.0,0.062809
1970.0,0.063041
1975.0,0.06335
1980.0,0.063259
1985.0,0.063382
1990.0,0.06343
1995.0,0.063592
2000.0,0.063705
2005.0,0.06371
2010.0,0.064062
2015.0,0.064134
2020.0,0.064259
2025.0,0.064099
2030.0,0.064308
2035.0,0.064443
2040.0,0.064756
2045.0,0.064684
2050.0,0.064994
2055.0,0.064967
2060.0,0.064703
2065.0,0.065088
2070.0,0.065152
2075.0,0.064869
2080.0,0.065268
2085.0,0.065276
2090.0,0.065309
2095.0,0.065403
2100.0,0.065488
2105.0,0.0657
2110.0,0.065714
2115.0,0.065692
2120.0,0.065809
2125.0,0.06618
2130.0,0.066158
2135.0,0.06645
2140.0,0.066281
2145.0,0.066326
2150.0,0.06648
2155.0,0.066461
2160.0,0.066501
2165.0,0.066582
2170.0,0.066576
2175.0,0.066797
2180.0,0.066614
2185.0,0.066616
2190.0,0.066727
2195.0,0.06671
2200.0,0.066908
2205.0,0.066986
2210.0,0.06715
2215.0,0.067108
2220.0,0.067323
2225.0,0.067162
2230.0,0.067171
2235.0,0.067457
2240.0,0.067528
2245.0,0.067692
2250.0,0.067348
2255.0,0.067754
2260.0,0.068011
2265.0,0.068036
2270.0,0.067937
2275.0,0.068145
2280.0,0.068179
2285.0,0.067911
2290.0,0.068327
2295.0,0.068415
2300.0,0.068618
2305.0,0.068745
2310.0,0.068752
2315.0,0.068877
2320.0,0.068975
2325.0,0.068826
2330.0,0.069129
2335.0,0.06911
2340.0,0.0692
2345.0,0.069362
2350.0,0.069297
2355.0,0.06923
2360.0,0.069368
2365.0,0.069269
2370.0,0.069718
2375.0,0.069706
2380.0,0.06955
2385.0,0.069746
2390.0,0.06961
2395.0,0.069868
2400.0,0.070301
2405.0,0.070134
2410.0,0.070276
2415.0,0.070157
2420.0,0.070085
2425.0,0.070157
2430.0,0.070318
2435.0,0.070531
2440.0,0.07021
2445.0,0.070487
2450.0,0.070359
2455.0,0.070443
2460.0,0.070557
2465.0,0.07058
2470.0,0.070512
2475.0,0.07108
2480.0,0.07082
2485.0,0.071014
2490.0,0.07105
2495.0,0.071232
2500.0,0.0712
2502.0,0.071037
2503.2,0.071134
2504.41,0.07121
2505.62,0.071343
2506.83,0.07116
2508.05,0.070866
2509.26,0.070921
2510.48,0.071005
2511.69,0.070992
2512.91,0.071025
2514.13,0.071146
2515.35,0.071343
2516.57,0.071297
2517.79,0.070802
2519.02,0.070778
2520.24,0.071279
2521.47,0.07139
2522.69,0.071175
2523.92,0.071094
2525.15,0.07139
2526.38,0.071311
2527.61,0.070874
2528.85,0.070989
2530.08,0.071253
2531.32,0.07121
2532.55,0.07124
2533.79,0.07121
2535.03,0.070934
2536.27,0.070705
2537.51,0.070908
2538.75,0.071239
2540.0,0.071034
2541.24,0.070961
2542.49,0.071151
2543.74,0.071297
2544.99,0.071288
2546.24,0.071315
2547.49,0.071162
2548.74,0.071006
2549.99,0.071048
2551.25,0.071142
2552.5,0.071121
2553.76,0.071119
2555.02,0.071265
2556.28,0.07152
2557.54,0.071506
2558.8,0.071283
2560.07,0.071116
2561.33,0.070915
2562.6,0.071056
2563.86,0.071488
2565.13,0.071414
2566.4,0.071104
2567.67,0.071154
2568.95,0.071432
2570.22,0.0714
2571.5,0.071289
2572.77,0.071294
2574.05,0.071246
2575.33,0.071535
2576.61,0.071468
2577.89,0.071051
2579.17,0.071209
2580.46,0.071119
2581.74,0.070956
2583.03,0.071317
2584.31,0.071474
2585.6,0.071436
2586.89,0.071186
2588.19,0.071027
2589.48,0.071189
2590.77,0.071148
2592.07,0.071002
2593.36,0.070885
2594.66,0.070898
2595.96,0.071408
2597.26,0.071861
2598.56,0.071769
2599.87,0.071402
2601.17,0.071556
2602.48,0.071499
2603.78,0.07124
2605.09,0.070905
2606.4,0.07083
2607.71,0.071255
2609.03,0.071177
2610.34,0.071013
2611.66,0.071201
2612.97,0.071171
2614.29,0.071072
2615.61,0.071181
2616.93,0.071107
2618.25,0.071316
2619.57,0.071365
2620.9,0.07108
2622.22,0.071346
2623.55,0.071418
2624.88,0.071179
2626.21,0.071276
2627.54,0.071467
2628.87,0.071396
2630.21,0.071126
2631.54,0.07094
2632.88,0.071275
2634.21,0.071359
2635.55,0.07133
2636.89,0.071312
2638.24,0.07141
2639.58,0.071419
2640.92,0.071199
2642.27,0.071086
2643.62,0.071266
2644.97,0.071354
2646.32,0.071342
2647.67,0.071328
2649.02,0.071435
2650.38,0.07117
2651.73,0.07113
2653.09,0.071322
2654.45,0.07133
2655.81,0.070882
2657.17,0.070862
2658.53,0.071045
2659.89,0.071119
2661.26,0.071198
2662.63,0.071136
2664.0,0.070616
2665.36,0.070546
2666.74,0.07118
2668.11,0.071454
2669.48,0.071252
2670.86,0.070935
2672.23,0.070898
2673.61,0.071111
2674.99,0.071068
2676.37,0.070845
2677.76,0.070833
2679.14,0.071016
2680.52,0.071157
2681.91,0.071129
2683.3,0.070976
2684.69,0.070868
2686.08,0.070876
2687.47,0.070985
2688.87,0.071051
2690.26,0.070996
2691.66,0.070767
2693.06,0.070751
2694.46,0.070755
2695.86,0.07077
2697.26,0.07076
2698.66,0.071021
2700.07,0.071208
2701.48,0.071062
2702.89,0.070777
2704.3,0.070616
2705.71,0.070673
2707.12,0.07098
2708.53,0.071041
2709.95,0.071021
2711.37,0.07105
2712.79,0.071126
2714.21,0.070942
2715.63,0.070584
2717.05,0.070447
2718.48,0.070716
2719.9,0.070773
2721.33,0.070505
2722.76,0.070503
2724.19,0.070576
2725.62,0.070695
2727.06,0.070913
2728.49,0.07099
2729.93,0.071094
2731.37,0.07115
2732.81,0.071097
2734.25,0.07058
2735.69,0.070365
2737.14,0.070702
2738.58,0.070674
2740.03,0.070769
2741.48,0.070947
2742.93,0.070936
2744.38,0.070748
2745.83,0.070685
2747.29,0.070806
2748.75,0.070945
2750.2,0.071069
2751.66,0.070937
2753.13,0.070914
2754.59,0.071012
2756.05,0.070642
2757.52,0.070635
2758.99,0.070944
2760.46,0.070801
2761.93,0.070668
2763.4,0.070822
2764.87,0.070912
2766.35,0.07072
2767.82,0.070747
2769.3,0.070876
2770.78,0.070638
2772.26,0.070457
2773.75,0.070491
2775.23,0.070617
2776.72,0.070838
2778.21,0.070835
2779.7,0.070672
2781.19,0.07039
2782.68,0.070392
2784.18,0.070644
2785.67,0.070669
2787.17,0.070395
2788.67,0.070227
2790.17,0.070371
2791.67,0.070307
2793.18,0.070145
2794.68,0.070298
2796.19,0.070371
2797.7,0.070547
2799.21,0.070563
2800.72,0.070427
2802.24,0.070307
2803.75,0.070243
2805.27,0.070356
2806.79,0.070539
2808.31,0.070413
2809.83,0.07019
2811.35,0.070239
2812.88,0.07042
2814.41,0.07029
2815.93,0.070205
2817.46,0.070243
2819.0,0.070272
2820.53,0.070273
2822.07,0.070073
2823.6,0.07018
2825.14,0.07024
2826.68,0.070062
2828.22,0.070097
2829.77,0.070039
2831.31,0.070072
2832.86,0.07021
2834.41,0.070215
2835.96,0.07006
2837.51,0.070107
2839.07,0.070214
2840.62,0.070098
2842.18,0.069959
2843.74,0.070025
2845.3,0.069915
2846.86,0.069884
2848.43,0.069898
2849.99,0.070119
2851.56,0.070179
2853.13,0.07007
2854.7,0.069938
2856.27,0.069855
2857.85,0.069802
2859.42,0.069877
2861.0,0.06992
2862.58,0.070016
2864.16,0.070009
2865.75,0.069972
2867.33,0.069799
2868.92,0.069802
2870.51,0.069866
2872.1,0.069908
2873.69,0.069854
2875.28,0.069592
2876.88,0.069687
2878.48,0.069953
2880.07,0.069854
2881.68,0.069831
2883.28,0.069837
2884.88,0.070051
2886.49,0.070148
2888.1,0.070033
2889.71,0.06976
2891.32,0.069665
2892.93,0.069794
2894.55,0.069945
2896.16,0.070189
2897.78,0.069955
2899.4,0.069556
2901.03,0.069529
2902.65,0.06967
2904.28,0.069715
2905.91,0.0698
2907.54,0.070051
2909.17,0.070072
2910.8,0.070029
2912.44,0.070019
2914.07,0.069872
2915.71,0.069752
2917.35,0.069701
2918.99,0.069855
2920.64,0.06993
2922.29,0.069748
2923.93,0.069801
2925.58,0.069937
2927.24,0.069812
2928.89,0.069716
2930.55,0.06982
2932.2,0.069943
2933.86,0.070008
2935.52,0.070151
2937.19,0.07014
2938.85,0.070089
2940.52,0.069863
2942.19,0.069733
2943.86,0.0696
2945.53,0.069491
2947.21,0.069573
2948.88,0.069795
2950.56,0.069784
2952.24,0.069618
2953.92,0.069592
2955.61,0.069678
2957.29,0.069788
2958.98,0.069731
2960.67,0.069614
2962.36,0.069761
2964.06,0.069788
2965.75,0.069694
2967.45,0.069633
2969.15,0.069603
2970.85,0.069541
2972.55,0.069447
2974.26,0.069496
2975.97,0.06945
2977.68,0.069567
2979.39,0.06964
2981.1,0.069461
2982.82,0.069357
2984.53,0.0695
2986.25,0.069494
2987.97,0.069391
2989.7,0.069383
2991.42,0.069603
2993.15,0.069639
2994.88,0.069374
2996.61,0.069259
2998.34,0.069536
3000.08,0.069578
3001.82,0.069375
3003.55,0.069408
3005.3,0.069416
3007.04,0.069473
3008.78,0.069537
3010.53,0.06951
3012.28,0.069492
3014.03,0.069494
3015.79,0.069446
3017.54,0.069594
3019.3,0.069642
3021.06,0.069533
3022.82,0.069387
3024.58,0.069468
3026.35,0.069452
3028.12,0.069393
3029.89,0.069343
3031.66,0.069277
3033.43,0.069371
3035.21,0.069583
3036.99,0.069584
3038.77,0.069525
3040.55,0.069482
3042.33,0.069381
3044.12,0.069441
3045.91,0.069516
3047.7,0.069442
3049.49,0.069328
3051.29,0.069382
3053.08,0.069571
3054.88,0.069556
3056.68,0.069499
3058.49,0.069399
3060.29,0.06927
3062.1,0.069227
3063.91,0.069286
3065.72,0.069363
3067.54,0.069382
3069.35,0.069424
3071.17,0.069609
3072.99,0.069593
3074.81,0.069404
3076.64,0.069427
3078.47,0.069488
3080.29,0.069428
3082.13,0.069455
3083.96,0.069557
3085.79,0.06943
3087.63,0.069247
3089.47,0.069261
3091.31,0.069367
3093.16,0.069324
3095.01,0.069349
3096.85,0.069559
3098.71,0.069646
3100.56,0.069498
3102.41,0.069349
3104.27,0.069335
3106.13,0.069396
3107.99,0.069375
3109.86,0.069442
3111.73,0.069556
3113.59,0.069408
3115.47,0.069324
3117.34,0.069281
3119.21,0.069275
3121.09,0.069286
3122.97,0.069353
3124.86,0.069285
3126.74,0.069313
3128.63,0.069482
3130.52,0.069463
3132.41,0.069379
3134.3,0.06929
3136.2,0.069188
3138.1,0.069282
3140.0,0.069221
3141.9,0.06904
3143.81,0.069196
3145.71,0.069255
3147.62,0.06921
3149.54,0.069264
3151.45,0.069309
3153.37,0.069282
3155.29,0.069293
3157.21,0.069309
3159.13,0.069275
3161.06,0.069291
3162.99,0.069405
3164.92,0.069438
3166.85,0.069428
3168.79,0.069368
3170.72,0.069241
3172.67,0.069234
3174.61,0.06926
3176.55,0.069175
3178.5,0.069122
3180.45,0.069167
3182.4,0.069379
3184.36,0.06941
3186.32,0.069358
3188.27,0.069407
3190.24,0.069229
3192.2,0.069185
3194.17,0.069328
3196.14,0.069323
3198.11,0.069279
3200.08,0.069303
3202.06,0.069339
3204.04,0.069347
3206.02,0.069384
3208.0,0.069385
3209.99,0.069163
3211.98,0.069068
3213.97,0.06923
3215.96,0.069272
3217.96,0.06924
3219.96,0.069263
3221.96,0.069279
3223.96,0.069182
3225.97,0.069128
3227.98,0.069231
3229.99,0.069336
3232.0,0.069353
3234.02,0.069317
3236.04,0.069283
3238.06,0.069298
3240.08,0.06932
3242.11,0.069242
3244.14,0.069224
3246.17,0.069224
3248.2,0.06929
3250.24,0.069297
3252.28,0.069274
3254.32,0.069371
3256.37,0.069357
3258.41,0.069258
3260.46,0.06938
3262.51,0.069418
3264.57,0.069302
3266.63,0.069248
3268.69,0.069282
3270.75,0.06932
3272.81,0.069374
3274.88,0.069409
3276.95,0.069332
3279.02,0.069248
3281.1,0.069279
3283.18,0.069269
3285.26,0.069264
3287.34,0.069363
3289.43,0.069262
3291.51,0.069256
3293.61,0.069336
3295.7,0.069314
3297.8,0.069109
3299.9,0.069029
3302.0,0.069215
3304.1,0.06926
3306.21,0.069269
3308.32,0.069337
3310.43,0.069311
3312.55,0.069445
3314.66,0.069498
3316.79,0.069403
3318.91,0.069325
3321.03,0.069348
3323.16,0.069324
3325.29,0.069407
3327.43,0.069527
3329.57,0.069483
3331.71,0.069447
3333.85,0.069349
3335.99,0.069231
3338.14,0.069353
3340.29,0.06948
3342.45,0.069463
3344.6,0.069459
3346.76,0.069569
3348.92,0.06957
3351.09,0.069417
3353.26,0.069358
3355.43,0.069391
3357.6,0.069414
3359.78,0.069389
3361.96,0.069498
3364.14,0.069558
3366.32,0.069534
3368.51,0.069513
3370.7,0.069602
3372.89,0.069799
3375.09,0.069781
3377.29,0.069683
3379.49,0.069594
3381.69,0.069617
3383.9,0.069537
3386.11,0.069489
3388.32,0.069455
3390.54,0.069556
3392.76,0.069661
3394.98,0.06963
3397.21,0.069607
3399.43,0.069735
3401.66,0.069797
3403.9,0.069762
3406.13,0.069648
3408.37,0.069587
3410.61,0.06966
3412.86,0.069721
3415.11,0.069663
3417.36,0.069741
3419.61,0.069933
3421.87,0.069986
3424.13,0.069979
3426.39,0.069972
3428.66,0.069937
3430.93,0.069806
3433.2,0.069672
3435.48,0.069737
3437.76,0.069831
3440.04,0.069797
3442.32,0.069804
3444.61,0.069887
3446.9,0.069921
3449.19,0.069844
3451.49,0.069812
3453.79,0.069897
3456.09,0.069927
3458.4,0.069936
3460.7,0.069927
3463.02,0.06989
3465.33,0.069962
3467.65,0.069889
3469.97,0.069801
3472.29,0.069894
3474.62,0.06996
3476.95,0.069852
3479.29,0.069813
3481.62,0.069863
3483.96,0.069822
3486.3,0.069856
3488.65,0.069838
3491.0,0.069921
3493.35,0.070025
3495.71,0.070094
3498.07,0.070043
3500.43,0.069963
3502.79,0.069966
3505.16,0.070051
3507.53,0.070139
3509.91,0.070119
3512.29,0.070079
3514.67,0.070153
3517.05,0.070189
3519.44,0.07014
3521.83,0.07008
3524.23,0.070093
3526.62,0.07003
3529.02,0.070069
3531.43,0.070122
3533.83,0.070111
3536.24,0.070115
3538.66,0.070118
3541.08,0.070136
3543.5,0.07009
3545.92,0.070078
3548.35,0.070125
3550.78,0.07017
3553.21,0.070322
3555.65,0.07037
3558.09,0.070189
3560.53,0.070128
3562.98,0.0702
3565.43,0.07032
3567.88,0.070389
3570.34,0.070435
3572.8,0.070402
3575.27,0.070363
3577.73,0.070371
3580.2,0.070277
3582.68,0.070304
3585.16,0.070461
3587.64,0.07053
3590.12,0.070478
3592.61,0.070409
3595.1,0.070398
3597.6,0.070473
3600.09,0.070573
3602.6,0.070645
3605.1,0.070617
3607.61,0.07053
3610.12,0.07049
3612.64,0.07046
3615.16,0.070457
3617.68,0.070561
3620.21,0.070616
3622.74,0.070643
3625.27,0.07073
3627.81,0.070729
3630.35,0.070617
3632.89,0.070577
3635.44,0.070652
3637.99,0.070744
3640.54,0.07074
3643.1,0.070773
3645.66,0.070891
3648.23,0.070826
3650.8,0.070713
3653.37,0.070671
3655.95,0.070725
3658.53,0.070817
3661.11,0.070931
3663.7,0.070974
3666.29,0.070963
3668.89,0.07092
3671.48,0.070902
3674.09,0.070969
3676.69,0.071047
3679.3,0.070993
3681.91,0.071061
3684.53,0.07112
3687.15,0.071058
3689.78,0.071068
3692.4,0.071198
3695.04,0.071206
3697.67,0.071167
3700.31,0.071187
3702.95,0.071228
3705.6,0.071293
3708.25,0.071258
3710.91,0.071148
3713.56,0.071194
3716.23,0.071328
3718.89,0.071284
3721.56,0.071266
3724.23,0.071407
3726.91,0.07149
3729.59,0.071474
3732.28,0.071443
3734.97,0.071502
3737.66,0.071486
3740.36,0.071508
3743.06,0.07164
3745.76,0.071635
3748.47,0.071564
3751.18,0.071534
3753.9,0.071563
3756.62,0.071635
3759.34,0.071663
