Database of Origin,University of Winnipeg Spectrophotometer Facility
Sample Description,9.2. MAGNETITE: Merged RELAB & Nicole / Merged at 2.5 um / different viewing geometry
Date Added,2016-07-15 22:03:00.460560

Data ID,RPN_MAG_20          
Sample ID,MAG120
Mineral Name,Magnetite
Grain Size,<45
Viewing Geometry,30 / 0 | 30
Resolution,1.2-129
Material Class,Magnetite

Wavelength
305.0,0.03576
310.0,0.034858
315.0,0.037728
320.0,0.035968
325.0,0.037147
330.0,0.037343
335.0,0.037992
340.0,0.037411
345.0,0.037947
350.0,0.038388
355.0,0.038574
360.0,0.038748
365.0,0.039251
370.0,0.039883
375.0,0.040069
380.0,0.040551
385.0,0.04064
390.0,0.041104
395.0,0.041471
400.0,0.041745
405.0,0.042084
410.0,0.042638
415.0,0.042454
420.0,0.042567
425.0,0.04315
430.0,0.043642
435.0,0.04425
440.0,0.044772
445.0,0.045372
450.0,0.045455
455.0,0.045614
460.0,0.04558
465.0,0.045607
470.0,0.045576
475.0,0.045678
480.0,0.04578
485.0,0.046078
490.0,0.046375
495.0,0.046926
500.0,0.047373
505.0,0.047905
510.0,0.048499
515.0,0.04919
520.0,0.049948
525.0,0.050697
530.0,0.052024
535.0,0.053055
540.0,0.05381
545.0,0.054708
550.0,0.055388
555.0,0.056093
560.0,0.056744
565.0,0.057171
570.0,0.057534
575.0,0.057937
580.0,0.058202
585.0,0.058428
590.0,0.058565
595.0,0.058762
600.0,0.058887
605.0,0.058839
610.0,0.059028
615.0,0.059162
620.0,0.059231
625.0,0.059275
630.0,0.059417
635.0,0.05946
640.0,0.059528
645.0,0.059469
650.0,0.059546
655.0,0.059515
660.0,0.059264
665.0,0.059395
670.0,0.059357
675.0,0.059276
680.0,0.059372
685.0,0.059161
690.0,0.059118
695.0,0.058901
700.0,0.058739
705.0,0.05876
710.0,0.058903
715.0,0.058636
720.0,0.058874
725.0,0.058832
730.0,0.058569
735.0,0.058542
740.0,0.058471
745.0,0.058469
750.0,0.058053
755.0,0.05793
760.0,0.057873
765.0,0.057584
770.0,0.057494
775.0,0.057275
780.0,0.057198
785.0,0.056767
790.0,0.056474
795.0,0.056361
800.0,0.056377
805.0,0.055591
810.0,0.05516
815.0,0.054917
820.0,0.055273
825.0,0.054609
830.0,0.054745
835.0,0.053923
840.0,0.053715
845.0,0.053779
850.0,0.053475
855.0,0.053727
860.0,0.052754
865.0,0.052891
870.0,0.053032
875.0,0.052695
880.0,0.052745
885.0,0.052249
890.0,0.051956
895.0,0.052244
900.0,0.051792
905.0,0.051507
910.0,0.051393
915.0,0.051636
920.0,0.051392
925.0,0.050968
930.0,0.050545
935.0,0.050816
940.0,0.050457
945.0,0.05045
950.0,0.050114
955.0,0.05021
960.0,0.050188
965.0,0.049839
970.0,0.049786
975.0,0.049618
980.0,0.049245
985.0,0.049295
990.0,0.049434
995.0,0.04942
1000.0,0.049296
1005.0,0.049054
1010.0,0.048969
1015.0,0.048862
1020.0,0.048941
1025.0,0.048532
1030.0,0.049027
1035.0,0.04898
1040.0,0.048724
1045.0,0.048756
1050.0,0.048844
1055.0,0.048673
1060.0,0.048625
1065.0,0.048407
1070.0,0.048467
1075.0,0.048449
1080.0,0.048405
1085.0,0.048278
1090.0,0.048211
1095.0,0.04813
1100.0,0.048099
1105.0,0.048116
1110.0,0.048061
1115.0,0.048001
1120.0,0.047955
1125.0,0.047956
1130.0,0.048034
1135.0,0.047957
1140.0,0.048073
1145.0,0.048124
1150.0,0.048209
1155.0,0.048203
1160.0,0.04817
1165.0,0.048193
1170.0,0.048383
1175.0,0.048397
1180.0,0.048557
1185.0,0.048163
1190.0,0.048349
1195.0,0.04839
1200.0,0.04874
1205.0,0.048826
1210.0,0.049083
1215.0,0.048853
1220.0,0.048926
1225.0,0.04896
1230.0,0.048922
1235.0,0.048689
1240.0,0.048693
1245.0,0.048515
1250.0,0.048879
1255.0,0.048909
1260.0,0.048777
1265.0,0.048928
1270.0,0.048787
1275.0,0.048748
1280.0,0.049007
1285.0,0.048917
1290.0,0.04884
1295.0,0.048894
1300.0,0.049039
1305.0,0.048896
1310.0,0.049094
1315.0,0.049226
1320.0,0.049247
1325.0,0.049358
1330.0,0.049468
1335.0,0.049341
1340.0,0.049297
1345.0,0.04954
1350.0,0.049557
1355.0,0.04998
1360.0,0.049459
1365.0,0.048721
1370.0,0.049089
1375.0,0.049329
1380.0,0.050287
1385.0,0.049345
1390.0,0.049837
1395.0,0.04991
1400.0,0.050127
1405.0,0.049946
1410.0,0.049981
1415.0,0.0502
1420.0,0.050229
1425.0,0.050149
1430.0,0.049889
1435.0,0.050172
1440.0,0.050112
1445.0,0.050726
1450.0,0.050553
1455.0,0.050323
1460.0,0.050869
1465.0,0.05084
1470.0,0.050564
1475.0,0.050715
1480.0,0.050789
1485.0,0.051031
1490.0,0.051005
1495.0,0.050837
1500.0,0.051269
1505.0,0.051226
1510.0,0.05129
1515.0,0.051673
1520.0,0.051344
1525.0,0.051761
1530.0,0.051899
1535.0,0.05205
1540.0,0.052113
1545.0,0.052124
1550.0,0.052
1555.0,0.052304
1560.0,0.052452
1565.0,0.05209
1570.0,0.052372
1575.0,0.052536
1580.0,0.052533
1585.0,0.052655
1590.0,0.052869
1595.0,0.052779
1600.0,0.052813
1605.0,0.052817
1610.0,0.052988
1615.0,0.053169
1620.0,0.053009
1625.0,0.053031
1630.0,0.052958
1635.0,0.053249
1640.0,0.053226
1645.0,0.053295
1650.0,0.053187
1655.0,0.053278
1660.0,0.053305
1665.0,0.053468
1670.0,0.053673
1675.0,0.053484
1680.0,0.053741
1685.0,0.053913
1690.0,0.0539
1695.0,0.053464
1700.0,0.053896
1705.0,0.053993
1710.0,0.054061
1715.0,0.054138
1720.0,0.054189
1725.0,0.054159
1730.0,0.054293
1735.0,0.054211
1740.0,0.054458
1745.0,0.054474
1750.0,0.054488
1755.0,0.054461
1760.0,0.054708
1765.0,0.054678
1770.0,0.054678
1775.0,0.05481
1780.0,0.054852
1785.0,0.054897
1790.0,0.055099
1795.0,0.055
1800.0,0.055191
1805.0,0.055631
1810.0,0.055788
1815.0,0.05587
1820.0,0.05587
1825.0,0.055929
1830.0,0.056047
1835.0,0.056006
1840.0,0.05635
1845.0,0.056274
1850.0,0.056356
1855.0,0.056083
1860.0,0.056361
1865.0,0.056325
1870.0,0.056865
1875.0,0.056515
1880.0,0.056368
1885.0,0.05655
1890.0,0.056594
1895.0,0.056706
1900.0,0.056633
1905.0,0.056899
1910.0,0.05678
1915.0,0.056805
1920.0,0.056687
1925.0,0.057056
1930.0,0.057024
1935.0,0.056792
1940.0,0.056991
1945.0,0.057002
1950.0,0.057312
1955.0,0.057026
1960.0,0.057311
1965.0,0.057436
1970.0,0.057405
1975.0,0.057443
1980.0,0.057513
1985.0,0.057618
1990.0,0.057607
1995.0,0.057628
2000.0,0.057661
2005.0,0.057837
2010.0,0.057955
2015.0,0.057911
2020.0,0.057896
2025.0,0.058016
2030.0,0.057904
2035.0,0.058107
2040.0,0.058098
2045.0,0.058043
2050.0,0.058301
2055.0,0.058273
2060.0,0.058212
2065.0,0.058454
2070.0,0.058394
2075.0,0.058411
2080.0,0.058714
2085.0,0.058599
2090.0,0.058759
2095.0,0.059016
2100.0,0.059019
2105.0,0.058957
2110.0,0.058851
2115.0,0.059142
2120.0,0.059032
2125.0,0.058973
2130.0,0.05911
2135.0,0.059257
2140.0,0.059044
2145.0,0.059223
2150.0,0.058826
2155.0,0.059314
2160.0,0.059289
2165.0,0.059223
2170.0,0.059147
2175.0,0.059124
2180.0,0.059291
2185.0,0.059316
2190.0,0.059372
2195.0,0.059394
2200.0,0.059334
2205.0,0.059428
2210.0,0.059274
2215.0,0.059361
2220.0,0.059611
2225.0,0.059674
2230.0,0.0596
2235.0,0.059789
2240.0,0.059562
2245.0,0.059769
2250.0,0.059905
2255.0,0.060084
2260.0,0.060091
2265.0,0.059955
2270.0,0.059946
2275.0,0.060086
2280.0,0.060123
2285.0,0.060245
2290.0,0.060097
2295.0,0.060315
2300.0,0.060347
2305.0,0.06047
2310.0,0.060586
2315.0,0.060612
2320.0,0.060486
2325.0,0.060686
2330.0,0.060634
2335.0,0.060433
2340.0,0.060495
2345.0,0.060477
2350.0,0.060947
2355.0,0.060703
2360.0,0.060737
2365.0,0.060595
2370.0,0.060842
2375.0,0.060736
2380.0,0.060775
2385.0,0.06074
2390.0,0.060886
2395.0,0.06082
2400.0,0.060733
2405.0,0.060851
2410.0,0.060869
2415.0,0.06113
2420.0,0.061031
2425.0,0.061296
2430.0,0.060999
2435.0,0.061071
2440.0,0.06121
2445.0,0.061241
2450.0,0.061137
2455.0,0.060993
2460.0,0.0611
2465.0,0.061065
2470.0,0.061026
2475.0,0.061318
2480.0,0.061565
2485.0,0.061385
2490.0,0.061259
2495.0,0.061212
2500.0,0.061114
2502.0,0.061311
2503.2,0.061208
2504.41,0.060974
2505.62,0.061131
2506.83,0.061102
2508.05,0.060925
2509.26,0.061086
2510.48,0.061407
2511.69,0.061353
2512.91,0.0614
2514.13,0.061246
2515.35,0.060977
2516.57,0.061124
2517.79,0.061357
2519.02,0.061277
2520.24,0.061034
2521.47,0.060841
2522.69,0.060979
2523.92,0.060906
2525.15,0.060934
2526.38,0.061309
2527.61,0.061355
2528.85,0.061106
2530.08,0.061027
2531.32,0.06139
2532.55,0.061404
2533.79,0.06117
2535.03,0.061017
2536.27,0.061023
2537.51,0.060991
2538.75,0.061051
2540.0,0.060851
2541.24,0.060739
2542.49,0.060752
2543.74,0.060618
2544.99,0.0607
2546.24,0.060876
2547.49,0.060929
2548.74,0.060883
2549.99,0.06087
2551.25,0.06092
2552.5,0.060754
2553.76,0.060664
2555.02,0.060718
2556.28,0.060877
2557.54,0.061061
2558.8,0.061047
2560.07,0.06099
2561.33,0.061001
2562.6,0.060698
2563.86,0.060471
2565.13,0.060523
2566.4,0.060784
2567.67,0.060917
2568.95,0.060747
2570.22,0.060699
2571.5,0.060936
2572.77,0.061182
2574.05,0.060931
2575.33,0.060782
2576.61,0.060607
2577.89,0.060625
2579.17,0.060613
2580.46,0.060521
2581.74,0.060625
2583.03,0.060821
2584.31,0.060845
2585.6,0.060878
2586.89,0.060739
2588.19,0.060581
2589.48,0.060667
2590.77,0.060601
2592.07,0.060599
2593.36,0.060893
2594.66,0.061097
2595.96,0.060972
2597.26,0.060826
2598.56,0.060674
2599.87,0.060431
2601.17,0.060387
2602.48,0.060662
2603.78,0.06078
2605.09,0.060769
2606.4,0.060687
2607.71,0.06073
2609.03,0.060778
2610.34,0.060716
2611.66,0.060672
2612.97,0.060486
2614.29,0.060534
2615.61,0.060653
2616.93,0.060687
2618.25,0.060639
2619.57,0.060466
2620.9,0.060394
2622.22,0.060646
2623.55,0.060855
2624.88,0.060703
2626.21,0.060662
2627.54,0.060807
2628.87,0.060739
2630.21,0.06062
2631.54,0.060684
2632.88,0.060576
2634.21,0.06058
2635.55,0.06089
2636.89,0.060886
2638.24,0.060482
2639.58,0.060209
2640.92,0.060422
2642.27,0.06063
2643.62,0.060613
2644.97,0.060352
2646.32,0.060311
2647.67,0.060629
2649.02,0.060774
2650.38,0.060509
2651.73,0.060337
2653.09,0.060415
2654.45,0.060394
2655.81,0.060491
2657.17,0.060522
2658.53,0.060445
2659.89,0.060428
2661.26,0.060357
2662.63,0.060385
2664.0,0.060374
2665.36,0.060388
2666.74,0.060378
2668.11,0.06052
2669.48,0.060584
2670.86,0.060432
2672.23,0.06043
2673.61,0.060233
2674.99,0.05999
2676.37,0.059986
2677.76,0.060266
2679.14,0.060684
2680.52,0.060557
2681.91,0.060268
2683.3,0.060063
2684.69,0.060065
2686.08,0.06021
2687.47,0.060223
2688.87,0.060303
2690.26,0.06008
2691.66,0.059851
2693.06,0.059885
2694.46,0.060035
2695.86,0.060195
2697.26,0.060016
2698.66,0.059853
2700.07,0.059888
2701.48,0.059803
2702.89,0.059841
2704.3,0.059791
2705.71,0.059782
2707.12,0.059805
2708.53,0.059858
2709.95,0.059976
2711.37,0.059782
2712.79,0.059647
2714.21,0.059803
2715.63,0.059883
2717.05,0.059747
2718.48,0.05958
2719.9,0.059565
2721.33,0.059559
2722.76,0.059531
2724.19,0.059491
2725.62,0.059437
2727.06,0.059415
2728.49,0.059268
2729.93,0.059166
2731.37,0.059004
2732.81,0.059011
2734.25,0.05899
2735.69,0.05887
2737.14,0.058979
2738.58,0.059053
2740.03,0.058907
2741.48,0.058945
2742.93,0.059071
2744.38,0.058886
2745.83,0.058779
2747.29,0.058595
2748.75,0.058247
2750.2,0.058105
2751.66,0.058416
2753.13,0.058751
2754.59,0.058587
2756.05,0.058167
2757.52,0.05829
2758.99,0.058533
2760.46,0.058383
2761.93,0.058086
2763.4,0.058171
2764.87,0.058391
2766.35,0.058344
2767.82,0.058185
2769.3,0.058005
2770.78,0.057987
2772.26,0.058095
2773.75,0.058229
2775.23,0.058101
2776.72,0.057852
2778.21,0.057876
2779.7,0.058012
2781.19,0.057825
2782.68,0.057648
2784.18,0.057631
2785.67,0.057653
2787.17,0.057633
2788.67,0.05767
2790.17,0.05767
2791.67,0.057696
2793.18,0.057699
2794.68,0.057419
2796.19,0.057351
2797.7,0.057571
2799.21,0.057539
2800.72,0.057395
2802.24,0.057276
2803.75,0.057303
2805.27,0.057246
2806.79,0.057194
2808.31,0.057172
2809.83,0.057134
2811.35,0.057093
2812.88,0.057096
2814.41,0.056969
2815.93,0.056724
2817.46,0.056781
2819.0,0.056863
2820.53,0.056718
2822.07,0.056633
2823.6,0.056667
2825.14,0.056619
2826.68,0.056725
2828.22,0.05661
2829.77,0.056553
2831.31,0.056603
2832.86,0.056579
2834.41,0.056557
2835.96,0.056541
2837.51,0.056554
2839.07,0.056387
2840.62,0.056213
2842.18,0.056367
2843.74,0.056544
2845.3,0.056511
2846.86,0.056355
2848.43,0.056366
2849.99,0.056405
2851.56,0.05637
2853.13,0.05641
2854.7,0.056297
2856.27,0.056101
2857.85,0.056176
2859.42,0.056138
2861.0,0.056236
2862.58,0.056279
2864.16,0.056063
2865.75,0.056019
2867.33,0.056092
2868.92,0.056001
2870.51,0.055883
2872.1,0.05587
2873.69,0.05587
2875.28,0.055964
2876.88,0.056
2878.48,0.055832
2880.07,0.055804
2881.68,0.055849
2883.28,0.055786
2884.88,0.0556
2886.49,0.055663
2888.1,0.055874
2889.71,0.055794
2891.32,0.05569
2892.93,0.055727
2894.55,0.05571
2896.16,0.055729
2897.78,0.055663
2899.4,0.055717
2901.03,0.05578
2902.65,0.055761
2904.28,0.055712
2905.91,0.055572
2907.54,0.055674
2909.17,0.055589
2910.8,0.05549
2912.44,0.055327
2914.07,0.055157
2915.71,0.055282
2917.35,0.055479
2918.99,0.055519
2920.64,0.055573
2922.29,0.055624
2923.93,0.055505
2925.58,0.055303
2927.24,0.055217
2928.89,0.055244
2930.55,0.055203
2932.2,0.055242
2933.86,0.055253
2935.52,0.055177
2937.19,0.055132
2938.85,0.055153
2940.52,0.055245
2942.19,0.055201
2943.86,0.055085
2945.53,0.055013
2947.21,0.05494
2948.88,0.055187
2950.56,0.055249
2952.24,0.055033
2953.92,0.054914
2955.61,0.055001
2957.29,0.055177
2958.98,0.055166
2960.67,0.055117
2962.36,0.055011
2964.06,0.054916
2965.75,0.054914
2967.45,0.054964
2969.15,0.054893
2970.85,0.054794
2972.55,0.054893
2974.26,0.054982
2975.97,0.054883
2977.68,0.054747
2979.39,0.054795
2981.1,0.054865
2982.82,0.05488
2984.53,0.05466
2986.25,0.054551
2987.97,0.054727
2989.7,0.054751
2991.42,0.05456
2993.15,0.054616
2994.88,0.054739
2996.61,0.054714
2998.34,0.054657
3000.08,0.054773
3001.82,0.054725
3003.55,0.054649
3005.3,0.054572
3007.04,0.054549
3008.78,0.054627
3010.53,0.05456
3012.28,0.054533
3014.03,0.054643
3015.79,0.054554
3017.54,0.054628
3019.3,0.05465
3021.06,0.054444
3022.82,0.05435
3024.58,0.054421
3026.35,0.054384
3028.12,0.054334
3029.89,0.054452
3031.66,0.054583
3033.43,0.054574
3035.21,0.054443
3036.99,0.05437
3038.77,0.054342
3040.55,0.054359
3042.33,0.05446
3044.12,0.054419
3045.91,0.054299
3047.7,0.054349
3049.49,0.054336
3051.29,0.054159
3053.08,0.054112
3054.88,0.054167
3056.68,0.054152
3058.49,0.054073
3060.29,0.054127
3062.1,0.054189
3063.91,0.054197
3065.72,0.054103
3067.54,0.054055
3069.35,0.054145
3071.17,0.054192
3072.99,0.054199
3074.81,0.054136
3076.64,0.054106
3078.47,0.054122
3080.29,0.054116
3082.13,0.054072
3083.96,0.053931
3085.79,0.053858
3087.63,0.053922
3089.47,0.054087
3091.31,0.054068
3093.16,0.054047
3095.01,0.053997
3096.85,0.053969
3098.71,0.054035
3100.56,0.054002
3102.41,0.053943
3104.27,0.054079
3106.13,0.054252
3107.99,0.054293
3109.86,0.054178
3111.73,0.054216
3113.59,0.0543
3115.47,0.054205
3117.34,0.054278
3119.21,0.054197
3121.09,0.054063
3122.97,0.054189
3124.86,0.054342
3126.74,0.054268
3128.63,0.054248
3130.52,0.054324
3132.41,0.054324
3134.3,0.054481
3136.2,0.05444
3138.1,0.054274
3140.0,0.054267
3141.9,0.05431
3143.81,0.054363
3145.71,0.054357
3147.62,0.054415
3149.54,0.054446
3151.45,0.05451
3153.37,0.054493
3155.29,0.054619
3157.21,0.05472
3159.13,0.054628
3161.06,0.054568
3162.99,0.054646
3164.92,0.054656
3166.85,0.054578
3168.79,0.054564
3170.72,0.054676
3172.67,0.054775
3174.61,0.05478
3176.55,0.054784
3178.5,0.054789
3180.45,0.054835
3182.4,0.05478
3184.36,0.054854
3186.32,0.054957
3188.27,0.054993
3190.24,0.055127
3192.2,0.05517
3194.17,0.055152
3196.14,0.055145
3198.11,0.055174
3200.08,0.055261
3202.06,0.055225
3204.04,0.055263
3206.02,0.055414
3208.0,0.055437
3209.99,0.055338
3211.98,0.055352
3213.97,0.055457
3215.96,0.055521
3217.96,0.055521
3219.96,0.055671
3221.96,0.055822
3223.96,0.055793
3225.97,0.055781
3227.98,0.055874
3229.99,0.055904
3232.0,0.055918
3234.02,0.056018
3236.04,0.056091
3238.06,0.056081
3240.08,0.056133
3242.11,0.056187
3244.14,0.056206
3246.17,0.056324
3248.2,0.056358
3250.24,0.056352
3252.28,0.056417
3254.32,0.056477
3256.37,0.056458
3258.41,0.056477
3260.46,0.056558
3262.51,0.056621
3264.57,0.056662
3266.63,0.056692
3268.69,0.056805
3270.75,0.056918
3272.81,0.056886
3274.88,0.056937
3276.95,0.056948
3279.02,0.056885
3281.1,0.056917
3283.18,0.057006
3285.26,0.057071
3287.34,0.057081
3289.43,0.057263
3291.51,0.057444
3293.61,0.057427
3295.7,0.057341
3297.8,0.057255
3299.9,0.057307
3302.0,0.057344
3304.1,0.057358
3306.21,0.057499
3308.32,0.057664
3310.43,0.0576
3312.55,0.057554
3314.66,0.057646
3316.79,0.057793
3318.91,0.057901
3321.03,0.057837
3323.16,0.057884
3325.29,0.05792
3327.43,0.057913
3329.57,0.057961
3331.71,0.058015
3333.85,0.058025
3335.99,0.058078
3338.14,0.058116
3340.29,0.058205
3342.45,0.058248
3344.6,0.058272
3346.76,0.058276
3348.92,0.058246
3351.09,0.05832
3353.26,0.058308
3355.43,0.058287
3357.6,0.058386
3359.78,0.058495
3361.96,0.058493
3364.14,0.058377
3366.32,0.058389
3368.51,0.058647
3370.7,0.058743
3372.89,0.05872
3375.09,0.058754
3377.29,0.058785
3379.49,0.058838
3381.69,0.058881
3383.9,0.058937
3386.11,0.058886
3388.32,0.058909
3390.54,0.059083
3392.76,0.059116
3394.98,0.059053
3397.21,0.059084
3399.43,0.059075
3401.66,0.059134
3403.9,0.059242
3406.13,0.059236
3408.37,0.05927
3410.61,0.059262
3412.86,0.059266
3415.11,0.059309
3417.36,0.059436
3419.61,0.05952
3421.87,0.059454
3424.13,0.059472
3426.39,0.059449
3428.66,0.059426
3430.93,0.059541
3433.2,0.059622
3435.48,0.059666
3437.76,0.059693
3440.04,0.059653
3442.32,0.059641
3444.61,0.059718
3446.9,0.059731
3449.19,0.059731
3451.49,0.059816
3453.79,0.059881
3456.09,0.059894
3458.4,0.059898
3460.7,0.059919
3463.02,0.060086
3465.33,0.060185
3467.65,0.060104
3469.97,0.059993
3472.29,0.059998
3474.62,0.060082
3476.95,0.060097
3479.29,0.060117
3481.62,0.060216
3483.96,0.060194
3486.3,0.060144
3488.65,0.060221
3491.0,0.06025
3493.35,0.060217
3495.71,0.060259
3498.07,0.060435
3500.43,0.060509
3502.79,0.060415
3505.16,0.060477
3507.53,0.060544
3509.91,0.060531
3512.29,0.060575
3514.67,0.060691
3517.05,0.060766
3519.44,0.060777
3521.83,0.060702
3524.23,0.060668
3526.62,0.060767
3529.02,0.060824
3531.43,0.060808
3533.83,0.060861
3536.24,0.060882
3538.66,0.060907
3541.08,0.060957
3543.5,0.061025
3545.92,0.061049
3548.35,0.061013
3550.78,0.061019
3553.21,0.061109
3555.65,0.061023
3558.09,0.060976
3560.53,0.061173
3562.98,0.061227
3565.43,0.061195
3567.88,0.06129
3570.34,0.061291
3572.8,0.061272
3575.27,0.061422
3577.73,0.061449
3580.2,0.061419
3582.68,0.061522
3585.16,0.061594
3587.64,0.061585
3590.12,0.061615
3592.61,0.061676
3595.1,0.061724
3597.6,0.061732
3600.09,0.061754
3602.6,0.061764
3605.1,0.061757
3607.61,0.061788
3610.12,0.061828
3612.64,0.061868
3615.16,0.061927
3617.68,0.061974
3620.21,0.062013
3622.74,0.062026
3625.27,0.062068
3627.81,0.062122
3630.35,0.062177
3632.89,0.062203
3635.44,0.06227
3637.99,0.06231
3640.54,0.062271
3643.1,0.062283
3645.66,0.062365
3648.23,0.06249
3650.8,0.06252
3653.37,0.062479
3655.95,0.06252
3658.53,0.06259
3661.11,0.0626
3663.7,0.062574
3666.29,0.062577
3668.89,0.062678
3671.48,0.062809
3674.09,0.062866
3676.69,0.062793
3679.3,0.062734
3681.91,0.06274
3684.53,0.062829
3687.15,0.062938
3689.78,0.062991
3692.4,0.063011
3695.04,0.063031
3697.67,0.063079
3700.31,0.063132
3702.95,0.063124
3705.6,0.063084
3708.25,0.06315
3710.91,0.063252
3713.56,0.063261
3716.23,0.063266
3718.89,0.063317
3721.56,0.063345
3724.23,0.063355
3726.91,0.06347
3729.59,0.063578
3732.28,0.063617
3734.97,0.063632
3737.66,0.063605
3740.36,0.0636
3743.06,0.063585
3745.76,0.063604
3748.47,0.063663
3751.18,0.063685
3753.9,0.063715
3756.62,0.063803
