Database of Origin,University of Winnipeg Spectrophotometer Facility
Sample Description,8. Sulfates: RELAB + Nicolet spectra / Spectra all made consistently merged: Jan. / 10 / 2005
Date Added,2016-07-15 22:05:55.638268

Data ID,RPN_SUL_53          
Sample ID,SPT139
Mineral Name,Rhomboclase
Grain Size,<45
Viewing Geometry,30 / 0 | 30
Resolution,5 / 1.3-129
Material Class,Sulfate

Wavelength
305.0,0.035495
310.0,0.032291
315.0,0.030142
320.0,0.028724
325.0,0.02748
330.0,0.026289
335.0,0.024916
340.0,0.023794
345.0,0.022984
350.0,0.023033
355.0,0.024391
360.0,0.028373
365.0,0.037556
370.0,0.055376
375.0,0.085284
380.0,0.128749
385.0,0.179647
390.0,0.239951
395.0,0.330023
400.0,0.430922
405.0,0.505904
410.0,0.543827
415.0,0.556975
420.0,0.54321
425.0,0.512685
430.0,0.492051
435.0,0.654076
440.0,0.742621
445.0,0.780003
450.0,0.799153
455.0,0.808718
460.0,0.815424
465.0,0.816846
470.0,0.817547
475.0,0.816781
480.0,0.815468
485.0,0.813743
490.0,0.814123
495.0,0.811202
500.0,0.811185
505.0,0.810393
510.0,0.810554
515.0,0.811058
520.0,0.811628
525.0,0.813273
530.0,0.814855
535.0,0.817372
540.0,0.819107
545.0,0.821824
550.0,0.824468
555.0,0.826223
560.0,0.82917
565.0,0.831883
570.0,0.834002
575.0,0.835661
580.0,0.836911
585.0,0.838943
590.0,0.841356
595.0,0.841763
600.0,0.844984
605.0,0.844574
610.0,0.848551
615.0,0.84948
620.0,0.853241
625.0,0.854296
630.0,0.857004
635.0,0.858537
640.0,0.860346
645.0,0.861399
650.0,0.862666
655.0,0.862444
660.0,0.862992
665.0,0.861939
670.0,0.861972
675.0,0.861011
680.0,0.859658
685.0,0.858296
690.0,0.856128
695.0,0.853062
700.0,0.850712
705.0,0.848148
710.0,0.84527
715.0,0.841922
720.0,0.837942
725.0,0.83503
730.0,0.831902
735.0,0.828907
740.0,0.824894
745.0,0.822365
750.0,0.819137
755.0,0.818964
760.0,0.815796
765.0,0.813855
770.0,0.812003
775.0,0.810553
780.0,0.80921
785.0,0.80932
790.0,0.810464
795.0,0.811328
800.0,0.81056
805.0,0.812231
810.0,0.812625
815.0,0.814822
820.0,0.816258
825.0,0.818637
830.0,0.819816
835.0,0.822516
840.0,0.826423
845.0,0.827567
850.0,0.830371
855.0,0.834381
860.0,0.836792
865.0,0.839927
870.0,0.844351
875.0,0.846053
880.0,0.849011
885.0,0.851571
890.0,0.855299
895.0,0.858152
900.0,0.860164
905.0,0.861082
910.0,0.865577
915.0,0.867033
920.0,0.869201
925.0,0.872464
930.0,0.87379
935.0,0.875322
940.0,0.876246
945.0,0.877341
950.0,0.880611
955.0,0.881457
960.0,0.883248
965.0,0.882817
970.0,0.884403
975.0,0.886364
980.0,0.885879
985.0,0.885897
990.0,0.887091
995.0,0.885338
1000.0,0.88661
1005.0,0.884577
1010.0,0.886056
1015.0,0.887104
1020.0,0.886778
1025.0,0.885284
1030.0,0.887211
1035.0,0.887366
1040.0,0.887648
1045.0,0.888262
1050.0,0.888709
1055.0,0.890301
1060.0,0.891008
1065.0,0.891501
1070.0,0.891832
1075.0,0.892796
1080.0,0.893619
1085.0,0.895362
1090.0,0.895947
1095.0,0.896077
1100.0,0.895645
1105.0,0.896694
1110.0,0.895653
1115.0,0.895597
1120.0,0.897543
1125.0,0.895328
1130.0,0.896313
1135.0,0.897614
1140.0,0.897259
1145.0,0.896109
1150.0,0.893804
1155.0,0.893519
1160.0,0.892851
1165.0,0.892014
1170.0,0.890849
1175.0,0.88913
1180.0,0.888011
1185.0,0.8852
1190.0,0.883202
1195.0,0.882074
1200.0,0.879128
1205.0,0.876451
1210.0,0.874858
1215.0,0.872208
1220.0,0.869637
1225.0,0.86915
1230.0,0.867338
1235.0,0.867182
1240.0,0.866469
1245.0,0.866384
1250.0,0.866237
1255.0,0.864986
1260.0,0.863612
1265.0,0.864577
1270.0,0.862883
1275.0,0.862405
1280.0,0.860757
1285.0,0.860615
1290.0,0.859583
1295.0,0.859484
1300.0,0.859156
1305.0,0.859219
1310.0,0.860404
1315.0,0.859707
1320.0,0.857579
1325.0,0.85736
1330.0,0.855857
1335.0,0.855559
1340.0,0.853626
1345.0,0.852139
1350.0,0.849903
1355.0,0.845987
1360.0,0.84292
1365.0,0.839339
1370.0,0.836768
1375.0,0.832402
1380.0,0.829928
1385.0,0.827965
1390.0,0.826458
1395.0,0.824926
1400.0,0.821789
1405.0,0.818252
1410.0,0.81281
1415.0,0.811031
1420.0,0.805555
1425.0,0.799526
1430.0,0.793092
1435.0,0.785452
1440.0,0.778251
1445.0,0.771481
1450.0,0.762879
1455.0,0.75236
1460.0,0.743587
1465.0,0.732425
1470.0,0.722717
1475.0,0.710935
1480.0,0.70024
1485.0,0.69033
1490.0,0.681305
1495.0,0.673235
1500.0,0.664684
1505.0,0.6588
1510.0,0.653375
1515.0,0.648653
1520.0,0.644482
1525.0,0.639535
1530.0,0.637002
1535.0,0.632717
1540.0,0.629452
1545.0,0.62793
1550.0,0.62468
1555.0,0.621044
1560.0,0.619279
1565.0,0.616486
1570.0,0.614348
1575.0,0.612296
1580.0,0.609924
1585.0,0.607495
1590.0,0.605776
1595.0,0.603254
1600.0,0.600832
1605.0,0.59879
1610.0,0.597009
1615.0,0.595264
1620.0,0.592989
1625.0,0.590685
1630.0,0.589675
1635.0,0.586914
1640.0,0.584717
1645.0,0.582563
1650.0,0.581574
1655.0,0.579725
1660.0,0.578114
1665.0,0.57667
1670.0,0.574757
1675.0,0.57349
1680.0,0.571422
1685.0,0.569502
1690.0,0.566387
1695.0,0.565511
1700.0,0.563145
1705.0,0.561966
1710.0,0.559821
1715.0,0.555562
1720.0,0.554208
1725.0,0.552624
1730.0,0.549928
1735.0,0.54836
1740.0,0.545846
1745.0,0.544138
1750.0,0.541962
1755.0,0.540286
1760.0,0.539029
1765.0,0.536949
1770.0,0.536154
1775.0,0.533392
1780.0,0.531806
1785.0,0.530029
1790.0,0.527834
1795.0,0.526425
1800.0,0.524804
1805.0,0.522994
1810.0,0.521703
1815.0,0.52066
1820.0,0.520012
1825.0,0.515513
1830.0,0.515855
1835.0,0.5157
1840.0,0.511244
1845.0,0.509364
1850.0,0.508049
1855.0,0.507066
1860.0,0.507251
1865.0,0.504883
1870.0,0.502022
1875.0,0.500112
1880.0,0.497402
1885.0,0.492304
1890.0,0.49042
1895.0,0.487228
1900.0,0.486095
1905.0,0.476291
1910.0,0.467929
1915.0,0.463094
1920.0,0.456516
1925.0,0.444133
1930.0,0.438696
1935.0,0.430145
1940.0,0.422217
1945.0,0.412212
1950.0,0.403729
1955.0,0.395136
1960.0,0.386317
1965.0,0.377909
1970.0,0.370391
1975.0,0.361749
1980.0,0.354966
1985.0,0.350543
1990.0,0.344887
1995.0,0.34076
2000.0,0.337736
2005.0,0.336729
2010.0,0.335416
2015.0,0.336879
2020.0,0.338138
2025.0,0.34171
2030.0,0.34531
2035.0,0.348019
2040.0,0.353408
2045.0,0.35603
2050.0,0.358124
2055.0,0.360128
2060.0,0.361431
2065.0,0.364422
2070.0,0.363881
2075.0,0.366526
2080.0,0.368475
2085.0,0.371597
2090.0,0.373688
2095.0,0.375928
2100.0,0.378103
2105.0,0.379971
2110.0,0.381325
2115.0,0.383092
2120.0,0.383974
2125.0,0.386256
2130.0,0.387542
2135.0,0.387674
2140.0,0.388453
2145.0,0.387973
2150.0,0.389243
2155.0,0.389747
2160.0,0.389167
2165.0,0.389659
2170.0,0.389628
2175.0,0.389557
2180.0,0.389246
2185.0,0.389133
2190.0,0.389514
2195.0,0.388604
2200.0,0.388609
2205.0,0.387298
2210.0,0.387271
2215.0,0.387415
2220.0,0.385991
2225.0,0.385388
2230.0,0.384813
2235.0,0.384444
2240.0,0.382924
2245.0,0.382625
2250.0,0.382403
2255.0,0.38061
2260.0,0.379996
2265.0,0.379208
2270.0,0.377926
2275.0,0.37603
2280.0,0.375212
2285.0,0.373705
2290.0,0.373283
2295.0,0.371632
2300.0,0.370099
2305.0,0.368159
2310.0,0.365552
2315.0,0.363642
2320.0,0.361029
2325.0,0.357127
2330.0,0.355875
2335.0,0.352001
2340.0,0.348299
2345.0,0.34432
2350.0,0.340502
2355.0,0.33759
2360.0,0.332162
2365.0,0.328629
2370.0,0.323483
2375.0,0.318871
2380.0,0.313805
2385.0,0.308596
2390.0,0.304133
2395.0,0.298821
2400.0,0.294346
2405.0,0.290034
2410.0,0.284635
2415.0,0.281342
2420.0,0.276356
2425.0,0.271753
2430.0,0.267072
2435.0,0.264704
2440.0,0.259688
2445.0,0.256659
2450.0,0.254308
2455.0,0.25215
2460.0,0.250003
2465.0,0.248685
2470.0,0.248892
2475.0,0.246533
2480.0,0.245361
2485.0,0.242971
2490.0,0.239749
2495.0,0.237482
2500.0,0.233744
2505.0,0.230476
2510.0,0.226195
2515.0,0.222932
2520.0,0.219124
2525.0,0.216432
2530.0,0.213119
2535.0,0.209658
2540.0,0.206242
2545.0,0.202134
2550.0,0.199952
2555.0,0.199139
2560.0,0.195493
2565.13,0.19328
2570.22,0.191664
2575.33,0.188893
2580.46,0.187524
2581.74,0.186794
2583.03,0.185821
2584.31,0.185121
2585.6,0.18527
2586.89,0.184282
2588.19,0.183493
2589.48,0.183361
2590.77,0.1834
2592.07,0.182938
2593.36,0.181853
2594.66,0.181033
2595.96,0.180843
2597.26,0.180439
2598.56,0.179899
2599.87,0.179566
2601.17,0.179632
2602.48,0.17985
2603.78,0.178887
2605.09,0.177975
2606.4,0.178089
2607.71,0.178431
2609.03,0.17767
2610.34,0.176423
2611.66,0.1757
2612.97,0.17555
2614.29,0.175395
2615.61,0.175448
2616.93,0.175055
2618.25,0.175137
2619.57,0.174902
2620.9,0.17393
2622.22,0.173387
2623.55,0.172866
2624.88,0.172785
2626.21,0.172816
2627.54,0.172646
2628.87,0.172483
2630.21,0.171795
2631.54,0.171606
2632.88,0.171654
2634.21,0.17176
2635.55,0.17157
2636.89,0.170758
2638.24,0.170157
2639.58,0.170058
2640.92,0.169838
2642.27,0.170015
2643.62,0.169667
2644.97,0.168904
2646.32,0.169102
2647.67,0.168915
2649.02,0.168299
2650.38,0.167927
2651.73,0.168056
2653.09,0.168187
2654.45,0.168314
2655.81,0.167723
2657.17,0.167317
2658.53,0.167543
2659.89,0.167026
2661.26,0.166513
2662.63,0.166437
2664.0,0.165864
2665.36,0.16524
2666.74,0.165477
2668.11,0.165853
2669.48,0.165097
2670.86,0.163817
2672.23,0.163751
2673.61,0.163918
2674.99,0.163611
2676.37,0.162789
2677.76,0.162311
2679.14,0.161923
2680.52,0.162213
2681.91,0.161949
2683.3,0.160877
2684.69,0.160661
2686.08,0.160312
2687.47,0.159668
2688.87,0.15952
2690.26,0.158912
2691.66,0.15817
2693.06,0.157535
2694.46,0.156846
2695.86,0.156734
2697.26,0.156126
2698.66,0.154849
2700.07,0.153871
2701.48,0.15334
2702.89,0.152817
2704.3,0.151977
2705.71,0.151109
2707.12,0.150198
2708.53,0.149333
2709.95,0.14874
2711.37,0.147778
2712.79,0.14695
2714.21,0.14577
2715.63,0.144794
2717.05,0.144102
2718.48,0.143332
2719.9,0.14188
2721.33,0.140411
2722.76,0.139561
2724.19,0.138393
2725.62,0.137376
2727.06,0.136619
2728.49,0.13528
2729.93,0.133824
2731.37,0.13246
2732.81,0.130932
2734.25,0.129236
2735.69,0.127647
2737.14,0.126393
2738.58,0.124993
2740.03,0.123199
2741.48,0.121443
2742.93,0.120436
2744.38,0.119387
2745.83,0.11758
2747.29,0.115823
2748.75,0.114155
2750.2,0.112095
2751.66,0.110354
2753.13,0.109214
2754.59,0.107284
2756.05,0.105313
2757.52,0.103432
2758.99,0.101707
2760.46,0.100022
2761.93,0.098156
2763.4,0.096062
2764.87,0.094374
2766.35,0.093058
2767.82,0.091354
2769.3,0.089199
2770.78,0.087402
2772.26,0.085735
2773.75,0.084107
2775.23,0.082273
2776.72,0.080213
2778.21,0.07852
2779.7,0.077284
2781.19,0.075705
2782.68,0.073432
2784.18,0.071812
2785.67,0.070362
2787.17,0.069013
2788.67,0.067833
2790.17,0.0664
2791.67,0.065024
2793.18,0.063326
2794.68,0.061363
2796.19,0.059636
2797.7,0.05835
2799.21,0.057279
2800.72,0.055707
2802.24,0.054026
2803.75,0.052658
2805.27,0.051181
2806.79,0.049712
2808.31,0.048456
2809.83,0.047352
2811.35,0.04611
2812.88,0.044879
2814.41,0.044393
2815.93,0.043507
2817.46,0.04138
2819.0,0.03939
2820.53,0.038658
2822.07,0.038325
2823.6,0.037613
2825.14,0.036693
2826.68,0.03573
2828.22,0.03481
2829.77,0.033901
2831.31,0.033324
2832.86,0.032407
2834.41,0.031275
2835.96,0.030568
2837.51,0.030053
2839.07,0.029432
2840.62,0.028825
2842.18,0.028681
2843.74,0.028205
2845.3,0.027106
2846.86,0.026795
2848.43,0.026787
2849.99,0.026727
2851.56,0.026452
2853.13,0.025938
2854.7,0.025305
2856.27,0.024756
2857.85,0.02453
2859.42,0.024436
2861.0,0.024016
2862.58,0.023582
2864.16,0.023084
2865.75,0.022878
2867.33,0.022541
2868.92,0.022338
2870.51,0.022148
2872.1,0.021766
2873.69,0.020998
2875.28,0.020998
2876.88,0.021343
2878.48,0.021096
2880.07,0.020829
2881.68,0.020547
2883.28,0.020614
2884.88,0.020711
2886.49,0.020598
2888.1,0.020275
2889.71,0.019933
2891.32,0.019611
2892.93,0.019562
2894.55,0.019814
2896.16,0.019452
2897.78,0.018878
2899.4,0.018792
2901.03,0.018636
2902.65,0.019019
2904.28,0.019209
2905.91,0.019113
2907.54,0.019275
2909.17,0.019491
2910.8,0.019272
2912.44,0.018809
2914.07,0.018314
2915.71,0.018331
2917.35,0.018448
2918.99,0.018529
2920.64,0.018315
2922.29,0.018108
2923.93,0.018075
2925.58,0.017986
2927.24,0.018013
2928.89,0.018099
2930.55,0.018241
2932.2,0.018228
2933.86,0.01783
2935.52,0.017674
2937.19,0.018098
2938.85,0.018154
2940.52,0.018356
2942.19,0.018052
2943.86,0.017653
2945.53,0.017784
2947.21,0.018066
2948.88,0.01818
2950.56,0.018476
2952.24,0.018397
2953.92,0.017999
2955.61,0.017647
2957.29,0.017721
2958.98,0.017848
2960.67,0.017988
2962.36,0.018094
2964.06,0.017656
2965.75,0.017714
2967.45,0.018197
2969.15,0.018218
2970.85,0.018147
2972.55,0.018049
2974.26,0.018275
2975.97,0.018121
2977.68,0.017679
2979.39,0.017445
2981.1,0.017518
2982.82,0.017924
2984.53,0.017779
2986.25,0.017488
2987.97,0.017623
2989.7,0.017799
2991.42,0.017742
2993.15,0.017656
2994.88,0.017365
2996.61,0.017489
2998.34,0.017892
3000.08,0.017852
3001.82,0.017321
3003.55,0.017151
3005.3,0.017517
3007.04,0.017869
3008.78,0.017889
3010.53,0.017836
3012.28,0.017603
3014.03,0.01747
3015.79,0.017466
3017.54,0.017464
3019.3,0.017447
3021.06,0.017391
3022.82,0.017362
3024.58,0.017468
3026.35,0.017437
3028.12,0.017352
3029.89,0.017305
3031.66,0.017542
3033.43,0.018062
3035.21,0.018328
3036.99,0.018226
3038.77,0.017952
3040.55,0.018006
3042.33,0.018104
3044.12,0.01817
3045.91,0.018091
3047.7,0.0182
3049.49,0.018473
3051.29,0.018439
3053.08,0.018485
3054.88,0.018556
3056.68,0.018225
3058.49,0.018129
3060.29,0.018106
3062.1,0.018308
3063.91,0.018415
3065.72,0.018255
3067.54,0.018333
3069.35,0.018372
3071.17,0.018327
3072.99,0.018328
3074.81,0.018142
3076.64,0.018247
3078.47,0.018462
3080.29,0.018409
3082.13,0.018141
3083.96,0.018335
3085.79,0.018516
3087.63,0.018359
3089.47,0.018422
3091.31,0.018571
3093.16,0.018741
3095.01,0.01881
3096.85,0.018664
3098.71,0.018577
3100.56,0.018855
3102.41,0.01911
3104.27,0.019027
3106.13,0.018891
3107.99,0.019045
3109.86,0.019056
3111.73,0.018673
3113.59,0.018678
3115.47,0.018845
3117.34,0.018693
3119.21,0.018728
3121.09,0.01886
3122.97,0.018717
3124.86,0.018717
3126.74,0.018814
3128.63,0.018955
3130.52,0.019102
3132.41,0.019265
3134.3,0.019612
3136.2,0.019625
3138.1,0.019452
3140.0,0.019387
3141.9,0.019638
3143.81,0.019674
3145.71,0.019429
3147.62,0.019376
3149.54,0.019346
3151.45,0.019375
3153.37,0.019659
3155.29,0.019837
3157.21,0.019932
3159.13,0.020018
3161.06,0.020002
3162.99,0.019951
3164.92,0.019794
3166.85,0.019684
3168.79,0.019799
3170.72,0.020015
3172.67,0.020218
3174.61,0.020307
3176.55,0.020403
3178.5,0.020479
3180.45,0.020326
3182.4,0.020198
3184.36,0.020159
3186.32,0.020123
3188.27,0.020245
3190.24,0.020825
3192.2,0.020968
3194.17,0.020716
3196.14,0.020814
3198.11,0.02098
3200.08,0.020773
3202.06,0.020531
3204.04,0.020743
3206.02,0.021244
3208.0,0.021568
3209.99,0.021465
3211.98,0.021323
3213.97,0.021445
3215.96,0.021299
3217.96,0.021173
3219.96,0.021454
3221.96,0.021522
3223.96,0.021716
3225.97,0.021706
3227.98,0.021504
3229.99,0.021737
3232.0,0.022048
3234.02,0.022208
3236.04,0.022258
3238.06,0.022306
3240.08,0.022314
3242.11,0.022466
3244.14,0.022649
3246.17,0.022786
3248.2,0.02273
3250.24,0.022859
3252.28,0.022896
3254.32,0.022958
3256.37,0.023197
3258.41,0.023122
3260.46,0.023001
3262.51,0.023194
3264.57,0.023399
3266.63,0.023349
3268.69,0.023589
3270.75,0.023754
3272.81,0.023595
3274.88,0.023836
3276.95,0.024113
3279.02,0.024122
3281.1,0.024172
3283.18,0.024011
3285.26,0.024097
3287.34,0.02439
3289.43,0.024725
3291.51,0.024776
3293.61,0.024719
3295.7,0.024898
3297.8,0.025078
3299.9,0.025168
3302.0,0.02523
3304.1,0.02533
3306.21,0.025533
3308.32,0.025976
3310.43,0.025926
3312.55,0.025603
3314.66,0.025744
3316.79,0.025936
3318.91,0.02589
3321.03,0.026102
3323.16,0.026199
3325.29,0.026137
3327.43,0.026225
3329.57,0.026555
3331.71,0.026632
3333.85,0.026399
3335.99,0.026768
3338.14,0.027138
3340.29,0.027101
3342.45,0.026942
3344.6,0.027115
3346.76,0.027389
3348.92,0.027574
3351.09,0.027792
3353.26,0.028094
3355.43,0.028263
3357.6,0.028263
3359.78,0.028236
3361.96,0.028359
3364.14,0.028545
3366.32,0.028578
3368.51,0.028494
3370.7,0.028667
3372.89,0.029048
3375.09,0.029269
3377.29,0.02933
3379.49,0.029576
3381.69,0.029707
3383.9,0.029552
3386.11,0.029797
3388.32,0.029978
3390.54,0.029832
3392.76,0.029828
3394.98,0.030176
3397.21,0.030429
3399.43,0.030436
3401.66,0.030606
3403.9,0.030807
3406.13,0.031069
3408.37,0.031205
3410.61,0.03136
3412.86,0.03133
3415.11,0.03136
3417.36,0.031665
3419.61,0.031717
3421.87,0.031883
3424.13,0.032265
3426.39,0.032068
3428.66,0.032159
3430.93,0.032438
3433.2,0.032387
3435.48,0.032495
3437.76,0.032582
3440.04,0.032739
3442.32,0.033027
3444.61,0.033176
3446.9,0.033198
3449.19,0.033346
3451.49,0.033438
3453.79,0.033614
3456.09,0.033806
3458.4,0.033969
3460.7,0.033991
3463.02,0.034066
3465.33,0.034066
3467.65,0.034155
3469.97,0.034205
3472.29,0.034375
3474.62,0.034796
3476.95,0.035147
3479.29,0.035179
3481.62,0.03508
3483.96,0.035256
3486.3,0.035414
3488.65,0.035541
3491.0,0.035704
3493.35,0.035902
3495.71,0.035903
3498.07,0.036155
3500.43,0.036309
3502.79,0.036308
3505.16,0.036453
3507.53,0.036621
3509.91,0.036679
3512.29,0.03691
3514.67,0.037114
3517.05,0.036969
3519.44,0.036915
3521.83,0.037048
3524.23,0.037092
3526.62,0.037212
3529.02,0.037684
3531.43,0.037931
3533.83,0.037979
3536.24,0.038026
3538.66,0.038136
3541.08,0.038376
3543.5,0.038617
3545.92,0.038749
3548.35,0.038676
3550.78,0.038764
3553.21,0.039051
3555.65,0.039213
3558.09,0.039416
3560.53,0.039428
3562.98,0.039431
3565.43,0.03957
3567.88,0.039574
3570.34,0.039772
3572.8,0.039868
3575.27,0.039881
3577.73,0.040044
3580.2,0.04028
3582.68,0.040324
3585.16,0.040471
3587.64,0.040543
3590.12,0.04059
3592.61,0.040872
3595.1,0.041053
3597.6,0.041213
3600.09,0.041446
3602.6,0.04154
3605.1,0.041621
3607.61,0.041901
3610.12,0.042005
3612.64,0.041879
3615.16,0.041998
3617.68,0.042424
3620.21,0.042623
3622.74,0.042663
3625.27,0.042831
3627.81,0.042863
3630.35,0.042902
3632.89,0.043187
3635.44,0.043449
3637.99,0.043438
3640.54,0.043469
3643.1,0.04368
3645.66,0.043996
3648.23,0.044155
3650.8,0.044175
3653.37,0.044194
3655.95,0.043812
3658.53,0.044137
3661.11,0.044769
3663.7,0.045022
3666.29,0.045029
3668.89,0.045033
3671.48,0.045229
3674.09,0.045452
3676.69,0.04545
3679.3,0.045412
3681.91,0.045528
3684.53,0.045767
3687.15,0.046013
3689.78,0.046228
3692.4,0.046149
3695.04,0.046306
3697.67,0.046712
3700.31,0.046808
3702.95,0.046914
3705.6,0.047116
3708.25,0.047107
3710.91,0.047198
3713.56,0.047432
3716.23,0.047692
3718.89,0.047733
3721.56,0.047735
3724.23,0.047872
3726.91,0.048032
3729.59,0.048345
3732.28,0.04835
3734.97,0.048399
3737.66,0.048607
3740.36,0.048758
3743.06,0.048717
3745.76,0.048639
3748.47,0.048756
3751.18,0.049112
3753.9,0.049201
3756.62,0.049408
3759.34,0.049625
3762.07,0.049511
3764.8,0.049501
3767.54,0.049805
3770.28,0.050217
3773.02,0.050159
3775.77,0.050031
3778.52,0.050225
3781.28,0.050415
3784.04,0.050369
3786.8,0.05048
3789.57,0.050683
3792.34,0.050768
3795.12,0.050965
3797.9,0.051124
3800.69,0.051215
3803.47,0.051317
3806.27,0.051328
3809.06,0.051621
3811.86,0.051719
3814.67,0.051538
3817.48,0.051569
3820.29,0.051805
3823.11,0.051991
3825.93,0.051829
3828.76,0.051821
3831.59,0.051947
3834.42,0.052079
3837.26,0.052296
3840.1,0.052377
3842.95,0.052443
3845.8,0.05254
3848.65,0.0526
3851.51,0.052722
3854.38,0.052904
3857.24,0.052935
3860.12,0.052859
3862.99,0.052921
3865.87,0.053161
3868.76,0.053211
3871.65,0.053216
3874.54,0.053286
3877.44,0.053233
3880.34,0.053035
3883.25,0.053245
3886.16,0.053612
