Database of Origin,University of Winnipeg Spectrophotometer Facility
Sample Description,8. Sulfates: RELAB + Nicolet spectra / Spectra all made consistently merged: Jan. / 10 / 2005
Date Added,2016-07-15 22:05:54.905264

Data ID,RPN_SUL_20          
Sample ID,SPT106
Mineral Name,ferrous sulfate (syn)
Grain Size,45-90
Viewing Geometry,30 / 0 | 30
Resolution,5 / 1.3-129
Material Class,Sulfate

Wavelength
305.0,0.141671
310.0,0.140577
315.0,0.139261
320.0,0.140324
325.0,0.142132
330.0,0.145059
335.0,0.147399
340.0,0.152141
345.0,0.157383
350.0,0.164361
355.0,0.172386
360.0,0.182638
365.0,0.195093
370.0,0.211085
375.0,0.231024
380.0,0.254846
385.0,0.2844
390.0,0.322681
395.0,0.370558
400.0,0.418125
405.0,0.465373
410.0,0.499544
415.0,0.524194
420.0,0.535642
425.0,0.536242
430.0,0.537334
435.0,0.541061
440.0,0.540835
445.0,0.541579
450.0,0.544893
455.0,0.547979
460.0,0.550061
465.0,0.552847
470.0,0.553917
475.0,0.555445
480.0,0.562674
485.0,0.56686
490.0,0.564531
495.0,0.563368
500.0,0.55829
505.0,0.558078
510.0,0.558442
515.0,0.563413
520.0,0.568706
525.0,0.57444
530.0,0.576704
535.0,0.581071
540.0,0.583292
545.0,0.584393
550.0,0.581941
555.0,0.582195
560.0,0.582405
565.0,0.578419
570.0,0.575681
575.0,0.570611
580.0,0.564005
585.0,0.559263
590.0,0.552885
595.0,0.5446
600.0,0.53625
605.0,0.524483
610.0,0.516201
615.0,0.504185
620.0,0.492181
625.0,0.480841
630.0,0.469861
635.0,0.45625
640.0,0.44247
645.0,0.430842
650.0,0.417787
655.0,0.405769
660.0,0.394198
665.0,0.382692
670.0,0.371051
675.0,0.360897
680.0,0.35223
685.0,0.343274
690.0,0.33522
695.0,0.327446
700.0,0.320735
705.0,0.314422
710.0,0.308733
715.0,0.302408
720.0,0.298205
725.0,0.293139
730.0,0.287214
735.0,0.281491
740.0,0.276633
745.0,0.269662
750.0,0.262914
755.0,0.254914
760.0,0.246419
765.0,0.238588
770.0,0.228322
775.0,0.21895
780.0,0.209167
785.0,0.200132
790.0,0.190314
795.0,0.179703
800.0,0.170323
805.0,0.161493
810.0,0.15276
815.0,0.145123
820.0,0.137523
825.0,0.129908
830.0,0.123768
835.0,0.11755
840.0,0.110899
845.0,0.106368
850.0,0.100651
855.0,0.097053
860.0,0.09252
865.0,0.089254
870.0,0.085462
875.0,0.082379
880.0,0.080222
885.0,0.077562
890.0,0.075716
895.0,0.074107
900.0,0.072744
905.0,0.070611
910.0,0.070098
915.0,0.068758
920.0,0.068608
925.0,0.067642
930.0,0.067252
935.0,0.067121
940.0,0.066932
945.0,0.06713
950.0,0.067633
955.0,0.067475
960.0,0.068255
965.0,0.068809
970.0,0.069409
975.0,0.070381
980.0,0.071481
985.0,0.072185
990.0,0.072909
995.0,0.074117
1000.0,0.075236
1005.0,0.075834
1010.0,0.077101
1015.0,0.078147
1020.0,0.079038
1025.0,0.08036
1030.0,0.081176
1035.0,0.081815
1040.0,0.082291
1045.0,0.083329
1050.0,0.083759
1055.0,0.084395
1060.0,0.084899
1065.0,0.084825
1070.0,0.084972
1075.0,0.085599
1080.0,0.085299
1085.0,0.085309
1090.0,0.085215
1095.0,0.085333
1100.0,0.085122
1105.0,0.085332
1110.0,0.085171
1115.0,0.085309
1120.0,0.084916
1125.0,0.084447
1130.0,0.084328
1135.0,0.084347
1140.0,0.084536
1145.0,0.084496
1150.0,0.084431
1155.0,0.085043
1160.0,0.085158
1165.0,0.085329
1170.0,0.085306
1175.0,0.08549
1180.0,0.086004
1185.0,0.086371
1190.0,0.086744
1195.0,0.087129
1200.0,0.08758
1205.0,0.087623
1210.0,0.088124
1215.0,0.088746
1220.0,0.08945
1225.0,0.08988
1230.0,0.090732
1235.0,0.09127
1240.0,0.092908
1245.0,0.094028
1250.0,0.095015
1255.0,0.096228
1260.0,0.097304
1265.0,0.099324
1270.0,0.101374
1275.0,0.103713
1280.0,0.105652
1285.0,0.108494
1290.0,0.111287
1295.0,0.113973
1300.0,0.116461
1305.0,0.119371
1310.0,0.123237
1315.0,0.126649
1320.0,0.130297
1325.0,0.134611
1330.0,0.13814
1335.0,0.141199
1340.0,0.144811
1345.0,0.147886
1350.0,0.15139
1355.0,0.154444
1360.0,0.15731
1365.0,0.160064
1370.0,0.162947
1375.0,0.166485
1380.0,0.169351
1385.0,0.172014
1390.0,0.175903
1395.0,0.178335
1400.0,0.181064
1405.0,0.183743
1410.0,0.185022
1415.0,0.186148
1420.0,0.186295
1425.0,0.183595
1430.0,0.180689
1435.0,0.175005
1440.0,0.168453
1445.0,0.159531
1450.0,0.14963
1455.0,0.138515
1460.0,0.12681
1465.0,0.114624
1470.0,0.104496
1475.0,0.094386
1480.0,0.085668
1485.0,0.07769
1490.0,0.071857
1495.0,0.066963
1500.0,0.06357
1505.0,0.060958
1510.0,0.058574
1515.0,0.057023
1520.0,0.055434
1525.0,0.054256
1530.0,0.053415
1535.0,0.052604
1540.0,0.052044
1545.0,0.051326
1550.0,0.050351
1555.0,0.049596
1560.0,0.048759
1565.0,0.047874
1570.0,0.04715
1575.0,0.046866
1580.0,0.046232
1585.0,0.046068
1590.0,0.046105
1595.0,0.046195
1600.0,0.046442
1605.0,0.046851
1610.0,0.047383
1615.0,0.047626
1620.0,0.048061
1625.0,0.048357
1630.0,0.049141
1635.0,0.049646
1640.0,0.049821
1645.0,0.050535
1650.0,0.051555
1655.0,0.052781
1660.0,0.053663
1665.0,0.054866
1670.0,0.056397
1675.0,0.057655
1680.0,0.058831
1685.0,0.060107
1690.0,0.061892
1695.0,0.063441
1700.0,0.065562
1705.0,0.067397
1710.0,0.069522
1715.0,0.071842
1720.0,0.074465
1725.0,0.076659
1730.0,0.079092
1735.0,0.080767
1740.0,0.082623
1745.0,0.08405
1750.0,0.085402
1755.0,0.086397
1760.0,0.087673
1765.0,0.088512
1770.0,0.08919
1775.0,0.090159
1780.0,0.091167
1785.0,0.091921
1790.0,0.093515
1795.0,0.09513
1800.0,0.096994
1805.0,0.098926
1810.0,0.10116
1815.0,0.102947
1820.0,0.105173
1825.0,0.107415
1830.0,0.108849
1835.0,0.110638
1840.0,0.112186
1845.0,0.11299
1850.0,0.113673
1855.0,0.113743
1860.0,0.112599
1865.0,0.111352
1870.0,0.109295
1875.0,0.104935
1880.0,0.099816
1885.0,0.094202
1890.0,0.087171
1895.0,0.079478
1900.0,0.071439
1905.0,0.062945
1910.0,0.055088
1915.0,0.047784
1920.0,0.041494
1925.0,0.035672
1930.0,0.03142
1935.0,0.027556
1940.0,0.024464
1945.0,0.021834
1950.0,0.020049
1955.0,0.018421
1960.0,0.017287
1965.0,0.016634
1970.0,0.015745
1975.0,0.015352
1980.0,0.015076
1985.0,0.01482
1990.0,0.014435
1995.0,0.014367
2000.0,0.014196
2005.0,0.014059
2010.0,0.014012
2015.0,0.013869
2020.0,0.013746
2025.0,0.013602
2030.0,0.013507
2035.0,0.013353
2040.0,0.013362
2045.0,0.013302
2050.0,0.013196
2055.0,0.013301
2060.0,0.013333
2065.0,0.01327
2070.0,0.013258
2075.0,0.013419
2080.0,0.01336
2085.0,0.013179
2090.0,0.013353
2095.0,0.013288
2100.0,0.013179
2105.0,0.013296
2110.0,0.012837
2115.0,0.01303
2120.0,0.01298
2125.0,0.012865
2130.0,0.012624
2135.0,0.012671
2140.0,0.012556
2145.0,0.012441
2150.0,0.012328
2155.0,0.012437
2160.0,0.012297
2165.0,0.012669
2170.0,0.01293
2175.0,0.012856
2180.0,0.01296
2185.0,0.013284
2190.0,0.013558
2195.0,0.013828
2200.0,0.014025
2205.0,0.014259
2210.0,0.014603
2215.0,0.014628
2220.0,0.014878
2225.0,0.015246
2230.0,0.015689
2235.0,0.016304
2240.0,0.016594
2245.0,0.017381
2250.0,0.017921
2255.0,0.018825
2260.0,0.01991
2265.0,0.02107
2270.0,0.022063
2275.0,0.023076
2280.0,0.023849
2285.0,0.024285
2290.0,0.024188
2295.0,0.02389
2300.0,0.023521
2305.0,0.023146
2310.0,0.022901
2315.0,0.022923
2320.0,0.022785
2325.0,0.022471
2330.0,0.02183
2335.0,0.021434
2340.0,0.02092
2345.0,0.020268
2350.0,0.019616
2355.0,0.019063
2360.0,0.018497
2365.0,0.018282
2370.0,0.017716
2375.0,0.017306
2380.0,0.016849
2385.0,0.016403
2390.0,0.015964
2395.0,0.015582
2400.0,0.01514
2405.0,0.014954
2410.0,0.014705
2415.0,0.014705
2420.0,0.014316
2425.0,0.014317
2430.0,0.014193
2435.0,0.014319
2440.0,0.014233
2445.0,0.014377
2450.0,0.014335
2455.0,0.01488
2460.0,0.015042
2465.0,0.014446
2470.0,0.014824
2475.0,0.01492
2480.0,0.014938
2485.0,0.014926
2490.0,0.014681
2495.0,0.014441
2500.0,0.014283
2505.0,0.014097
2510.0,0.013946
2515.0,0.013819
2520.0,0.013466
2525.0,0.013434
2530.0,0.01318
2535.0,0.013199
2540.0,0.012919
2545.0,0.012786
2550.0,0.012577
2555.0,0.012645
2560.0,0.012485
2565.13,0.012262
2570.22,0.011861
2575.33,0.012206
2580.46,0.011829
2581.74,0.012076
2583.03,0.01231
2584.31,0.0122
2585.6,0.011939
2586.89,0.012033
2588.19,0.012055
2589.48,0.011913
2590.77,0.011915
2592.07,0.011915
2593.36,0.011885
2594.66,0.011898
2595.96,0.011902
2597.26,0.011899
2598.56,0.011809
2599.87,0.011852
2601.17,0.011956
2602.48,0.011854
2603.78,0.011726
2605.09,0.011584
2606.4,0.011352
2607.71,0.0114
2609.03,0.011402
2610.34,0.011454
2611.66,0.011529
2612.97,0.011589
2614.29,0.011512
2615.61,0.011559
2616.93,0.011402
2618.25,0.011249
2619.57,0.011454
2620.9,0.011563
2622.22,0.011556
2623.55,0.011477
2624.88,0.011421
2626.21,0.01135
2627.54,0.011303
2628.87,0.011268
2630.21,0.01119
2631.54,0.011195
2632.88,0.011148
2634.21,0.011141
2635.55,0.011039
2636.89,0.010924
2638.24,0.010919
2639.58,0.010957
2640.92,0.011004
2642.27,0.010947
2643.62,0.010908
2644.97,0.010884
2646.32,0.010744
2647.67,0.010749
2649.02,0.010806
2650.38,0.010836
2651.73,0.010806
2653.09,0.010804
2654.45,0.010934
2655.81,0.010963
2657.17,0.010761
2658.53,0.010636
2659.89,0.010643
2661.26,0.010642
2662.63,0.010548
2664.0,0.010306
2665.36,0.010357
2666.74,0.010574
2668.11,0.010569
2669.48,0.010441
2670.86,0.010327
2672.23,0.010325
2673.61,0.010131
2674.99,0.01002
2676.37,0.010126
2677.76,0.010346
2679.14,0.010274
2680.52,0.010087
2681.91,0.01013
2683.3,0.009988
2684.69,0.009884
2686.08,0.00987
2687.47,0.009828
2688.87,0.009883
2690.26,0.009897
2691.66,0.009866
2693.06,0.009903
2694.46,0.009841
2695.86,0.009736
2697.26,0.009792
2698.66,0.009775
2700.07,0.009556
2701.48,0.009529
2702.89,0.009536
2704.3,0.009474
2705.71,0.009432
2707.12,0.009447
2708.53,0.009264
2709.95,0.009158
2711.37,0.009251
2712.79,0.009353
2714.21,0.009216
2715.63,0.009073
2717.05,0.00909
2718.48,0.009155
2719.9,0.009078
2721.33,0.008887
2722.76,0.008963
2724.19,0.008948
2725.62,0.008905
2727.06,0.008895
2728.49,0.00877
2729.93,0.008644
2731.37,0.008722
2732.81,0.008798
2734.25,0.008634
2735.69,0.008479
2737.14,0.008395
2738.58,0.008401
2740.03,0.008436
2741.48,0.008376
2742.93,0.00824
2744.38,0.008213
2745.83,0.008206
2747.29,0.008229
2748.75,0.008174
2750.2,0.008147
2751.66,0.008201
2753.13,0.008069
2754.59,0.007942
2756.05,0.007985
2757.52,0.007954
2758.99,0.007901
2760.46,0.007838
2761.93,0.00776
2763.4,0.007749
2764.87,0.007706
2766.35,0.007598
2767.82,0.007452
2769.3,0.007376
2770.78,0.007337
2772.26,0.007338
2773.75,0.007259
2775.23,0.00726
2776.72,0.00735
2778.21,0.007237
2779.7,0.006997
2781.19,0.00695
2782.68,0.007077
2784.18,0.007181
2785.67,0.007145
2787.17,0.007049
2788.67,0.007108
2790.17,0.007077
2791.67,0.006917
2793.18,0.006868
2794.68,0.006746
2796.19,0.006687
2797.7,0.006746
2799.21,0.006755
2800.72,0.006877
2802.24,0.006921
2803.75,0.006897
2805.27,0.006886
2806.79,0.006831
2808.31,0.006698
2809.83,0.006551
2811.35,0.00656
2812.88,0.006549
2814.41,0.006463
2815.93,0.00643
2817.46,0.00645
2819.0,0.006478
2820.53,0.006553
2822.07,0.006666
2823.6,0.006572
2825.14,0.006412
2826.68,0.006456
2828.22,0.006327
2829.77,0.006215
2831.31,0.00631
2832.86,0.006269
2834.41,0.006238
2835.96,0.006302
2837.51,0.006311
2839.07,0.00628
2840.62,0.006306
2842.18,0.006386
2843.74,0.006383
2845.3,0.006352
2846.86,0.006334
2848.43,0.006336
2849.99,0.006281
2851.56,0.006201
2853.13,0.006081
2854.7,0.006016
2856.27,0.005974
2857.85,0.005957
2859.42,0.006033
2861.0,0.006087
2862.58,0.006129
2864.16,0.006125
2865.75,0.005989
2867.33,0.005924
2868.92,0.005952
2870.51,0.005973
2872.1,0.005933
2873.69,0.005946
2875.28,0.005983
2876.88,0.005836
2878.48,0.005745
2880.07,0.00584
2881.68,0.005828
2883.28,0.00577
2884.88,0.005872
2886.49,0.005891
2888.1,0.005815
2889.71,0.005772
2891.32,0.005763
2892.93,0.005694
2894.55,0.005629
2896.16,0.005688
2897.78,0.005769
2899.4,0.005734
2901.03,0.005746
2902.65,0.005777
2904.28,0.005708
2905.91,0.005574
2907.54,0.005488
2909.17,0.005574
2910.8,0.005588
2912.44,0.005573
2914.07,0.00558
2915.71,0.005523
2917.35,0.005481
2918.99,0.005395
2920.64,0.005454
2922.29,0.005516
2923.93,0.005398
2925.58,0.005371
2927.24,0.005447
2928.89,0.005456
2930.55,0.005469
2932.2,0.005435
2933.86,0.005389
2935.52,0.005334
2937.19,0.005344
2938.85,0.005294
2940.52,0.005203
2942.19,0.005208
2943.86,0.005196
2945.53,0.005134
2947.21,0.005061
2948.88,0.00505
2950.56,0.004977
2952.24,0.00499
2953.92,0.005001
2955.61,0.004973
2957.29,0.005013
2958.98,0.005152
2960.67,0.0052
2962.36,0.005127
2964.06,0.004976
2965.75,0.004991
2967.45,0.005045
2969.15,0.004978
2970.85,0.005057
2972.55,0.00501
2974.26,0.004967
2975.97,0.005081
2977.68,0.004982
2979.39,0.00472
2981.1,0.00481
2982.82,0.004995
2984.53,0.004894
2986.25,0.004807
2987.97,0.004822
2989.7,0.004826
2991.42,0.004832
2993.15,0.004782
2994.88,0.004775
2996.61,0.004814
2998.34,0.004873
3000.08,0.004922
3001.82,0.00496
3003.55,0.004921
3005.3,0.004905
3007.04,0.004934
3008.78,0.004785
3010.53,0.004735
3012.28,0.004799
3014.03,0.004769
3015.79,0.004864
3017.54,0.004862
3019.3,0.004807
3021.06,0.004849
3022.82,0.00483
3024.58,0.004861
3026.35,0.004858
3028.12,0.004897
3029.89,0.005002
3031.66,0.00499
3033.43,0.005024
3035.21,0.005078
3036.99,0.005171
3038.77,0.00522
3040.55,0.005291
3042.33,0.005372
3044.12,0.00537
3045.91,0.00536
3047.7,0.005344
3049.49,0.005478
3051.29,0.005631
3053.08,0.005685
3054.88,0.005688
3056.68,0.005662
3058.49,0.005811
3060.29,0.005938
3062.1,0.005979
3063.91,0.006095
3065.72,0.006277
3067.54,0.00635
3069.35,0.006265
3071.17,0.006335
3072.99,0.006432
3074.81,0.006553
3076.64,0.006563
3078.47,0.006617
3080.29,0.00676
3082.13,0.006805
3083.96,0.006784
3085.79,0.006763
3087.63,0.006788
3089.47,0.00691
3091.31,0.007003
3093.16,0.007091
3095.01,0.007208
3096.85,0.007294
3098.71,0.007333
3100.56,0.007384
3102.41,0.007407
3104.27,0.007382
3106.13,0.007432
3107.99,0.007494
3109.86,0.007492
3111.73,0.007446
3113.59,0.007576
3115.47,0.007674
3117.34,0.007604
3119.21,0.007638
3121.09,0.007775
3122.97,0.007808
3124.86,0.00777
3126.74,0.00775
3128.63,0.007759
3130.52,0.007823
3132.41,0.007878
3134.3,0.007847
3136.2,0.007933
3138.1,0.008045
3140.0,0.008049
3141.9,0.008046
3143.81,0.00811
3145.71,0.008144
3147.62,0.00808
3149.54,0.008074
3151.45,0.008073
3153.37,0.008063
3155.29,0.008079
3157.21,0.008003
3159.13,0.008062
3161.06,0.008145
3162.99,0.008072
3164.92,0.008075
3166.85,0.008111
3168.79,0.008094
3170.72,0.00811
3172.67,0.008022
3174.61,0.007998
3176.55,0.008016
3178.5,0.008084
3180.45,0.008073
3182.4,0.008051
3184.36,0.008124
3186.32,0.008078
3188.27,0.008025
3190.24,0.008006
3192.2,0.007974
3194.17,0.007975
3196.14,0.007937
3198.11,0.007883
3200.08,0.007939
3202.06,0.008057
3204.04,0.008022
3206.02,0.007967
3208.0,0.007979
3209.99,0.007959
3211.98,0.00797
3213.97,0.008071
3215.96,0.008019
3217.96,0.007988
3219.96,0.008053
3221.96,0.008092
3223.96,0.008083
3225.97,0.008077
3227.98,0.008055
3229.99,0.008041
3232.0,0.008055
3234.02,0.008041
3236.04,0.008051
3238.06,0.008203
3240.08,0.008203
3242.11,0.008105
3244.14,0.008121
3246.17,0.008167
3248.2,0.008244
3250.24,0.008238
3252.28,0.00813
3254.32,0.008121
3256.37,0.008225
3258.41,0.008362
3260.46,0.008419
3262.51,0.008427
3264.57,0.00847
3266.63,0.008492
3268.69,0.008454
3270.75,0.00842
3272.81,0.008475
3274.88,0.008551
3276.95,0.008628
3279.02,0.008612
3281.1,0.008655
3283.18,0.008625
3285.26,0.008561
3287.34,0.008658
3289.43,0.008782
3291.51,0.00882
3293.61,0.008831
3295.7,0.008794
3297.8,0.008803
3299.9,0.008783
3302.0,0.008752
3304.1,0.008742
3306.21,0.008842
3308.32,0.008988
3310.43,0.008957
3312.55,0.00886
3314.66,0.008869
3316.79,0.008976
3318.91,0.009032
3321.03,0.008954
3323.16,0.00886
3325.29,0.008932
3327.43,0.009044
3329.57,0.008975
3331.71,0.008935
3333.85,0.008939
3335.99,0.008897
3338.14,0.008935
3340.29,0.008971
3342.45,0.008996
3344.6,0.009022
3346.76,0.009036
3348.92,0.008977
3351.09,0.009012
3353.26,0.009051
3355.43,0.008982
3357.6,0.009017
3359.78,0.009061
3361.96,0.009041
3364.14,0.009027
3366.32,0.008986
3368.51,0.00899
3370.7,0.008979
3372.89,0.009043
3375.09,0.009015
3377.29,0.008883
3379.49,0.008881
3381.69,0.008921
3383.9,0.008912
3386.11,0.008912
3388.32,0.008936
3390.54,0.008899
3392.76,0.008889
3394.98,0.008965
3397.21,0.009003
3399.43,0.008965
3401.66,0.008965
3403.9,0.008887
3406.13,0.008852
3408.37,0.008874
3410.61,0.008908
3412.86,0.008909
3415.11,0.008953
3417.36,0.008953
3419.61,0.008952
3421.87,0.008933
3424.13,0.008972
3426.39,0.008953
3428.66,0.008872
3430.93,0.008862
3433.2,0.008878
3435.48,0.008893
3437.76,0.008851
3440.04,0.008776
3442.32,0.00875
3444.61,0.008798
3446.9,0.008794
3449.19,0.008763
3451.49,0.008741
3453.79,0.008727
3456.09,0.008767
3458.4,0.008734
3460.7,0.008675
3463.02,0.008688
3465.33,0.008656
3467.65,0.008688
3469.97,0.008775
3472.29,0.008762
3474.62,0.008715
3476.95,0.008652
3479.29,0.008694
3481.62,0.008814
3483.96,0.008766
3486.3,0.008696
3488.65,0.008746
3491.0,0.008768
3493.35,0.00873
3495.71,0.008789
3498.07,0.008855
3500.43,0.008881
3502.79,0.008817
3505.16,0.008832
3507.53,0.008834
3509.91,0.008756
3512.29,0.008764
3514.67,0.008835
3517.05,0.008823
3519.44,0.008838
3521.83,0.008771
3524.23,0.00879
3526.62,0.008893
3529.02,0.008909
3531.43,0.008856
3533.83,0.008843
3536.24,0.008852
3538.66,0.008842
3541.08,0.008884
3543.5,0.008895
3545.92,0.008932
3548.35,0.008971
3550.78,0.008942
3553.21,0.008903
3555.65,0.008913
3558.09,0.008976
3560.53,0.008976
3562.98,0.008957
3565.43,0.00895
3567.88,0.008917
3570.34,0.00893
3572.8,0.008998
3575.27,0.008961
3577.73,0.008947
3580.2,0.008979
3582.68,0.008955
3585.16,0.008951
3587.64,0.008942
3590.12,0.008939
3592.61,0.008918
3595.1,0.00886
3597.6,0.008866
3600.09,0.008853
3602.6,0.008893
3605.1,0.008889
3607.61,0.00882
3610.12,0.008793
3612.64,0.008805
3615.16,0.008815
3617.68,0.008797
3620.21,0.008763
3622.74,0.008806
3625.27,0.008821
3627.81,0.008836
3630.35,0.008842
3632.89,0.008812
3635.44,0.008812
3637.99,0.008897
3640.54,0.008928
3643.1,0.00886
3645.66,0.00884
3648.23,0.008813
3650.8,0.008769
3653.37,0.008765
3655.95,0.008825
3658.53,0.008819
3661.11,0.008746
3663.7,0.008726
3666.29,0.008748
3668.89,0.008778
3671.48,0.008721
3674.09,0.008663
3676.69,0.008703
3679.3,0.008775
3681.91,0.008818
3684.53,0.00875
3687.15,0.008708
3689.78,0.008708
3692.4,0.008719
3695.04,0.008707
3697.67,0.008679
3700.31,0.008681
3702.95,0.008666
3705.6,0.008672
3708.25,0.008676
3710.91,0.008649
3713.56,0.008704
3716.23,0.008724
3718.89,0.008658
3721.56,0.008611
3724.23,0.008572
3726.91,0.008552
3729.59,0.008576
3732.28,0.008584
3734.97,0.008602
3737.66,0.008649
3740.36,0.008629
3743.06,0.008599
3745.76,0.00854
3748.47,0.008537
3751.18,0.008578
3753.9,0.008647
3756.62,0.008655
3759.34,0.0086
3762.07,0.008571
3764.8,0.008567
3767.54,0.008593
3770.28,0.008569
3773.02,0.008551
3775.77,0.008563
3778.52,0.008565
3781.28,0.00854
3784.04,0.008514
3786.8,0.008509
3789.57,0.008531
3792.34,0.008576
3795.12,0.008543
3797.9,0.008535
3800.69,0.008535
3803.47,0.008527
3806.27,0.008517
3809.06,0.008481
3811.86,0.008517
3814.67,0.008522
3817.48,0.008499
3820.29,0.008516
3823.11,0.00855
3825.93,0.008599
3828.76,0.008565
3831.59,0.008468
3834.42,0.008461
3837.26,0.008506
3840.1,0.008534
3842.95,0.008607
3845.8,0.008605
3848.65,0.008598
3851.51,0.008646
3854.38,0.008628
3857.24,0.008588
3860.12,0.008547
3862.99,0.008507
3865.87,0.008501
3868.76,0.008554
3871.65,0.008569
3874.54,0.008552
3877.44,0.008549
3880.34,0.008515
3883.25,0.008547
3886.16,0.00858
