Database of Origin,University of Winnipeg Spectrophotometer Facility
Sample Description,9.2. MAGNETITE: Merged RELAB & Nicole / Merged at 2.5 um / different viewing geometry
Date Added,2016-07-15 22:03:00.216369

Data ID,RPN_MAG_10          
Sample ID,MAG110
Mineral Name,Magnetite
Grain Size,<45
Viewing Geometry,30 / 0 | 30
Resolution,1.2-129
Material Class,Magnetite

Wavelength
305.0,0.052152
310.0,0.052626
315.0,0.052798
320.0,0.05293
325.0,0.053912
330.0,0.054849
335.0,0.0545
340.0,0.054178
345.0,0.054209
350.0,0.054155
355.0,0.054661
360.0,0.055156
365.0,0.055979
370.0,0.056216
375.0,0.057187
380.0,0.057484
385.0,0.057815
390.0,0.058347
395.0,0.058885
400.0,0.059375
405.0,0.059806
410.0,0.059315
415.0,0.059559
420.0,0.059539
425.0,0.058973
430.0,0.059252
435.0,0.059109
440.0,0.05878
445.0,0.058292
450.0,0.058433
455.0,0.058136
460.0,0.057744
465.0,0.057498
470.0,0.057393
475.0,0.057138
480.0,0.057112
485.0,0.056913
490.0,0.0569
495.0,0.056819
500.0,0.05672
505.0,0.056642
510.0,0.056629
515.0,0.056628
520.0,0.056794
525.0,0.05698
530.0,0.057329
535.0,0.057762
540.0,0.057947
545.0,0.058072
550.0,0.058202
555.0,0.05839
560.0,0.058393
565.0,0.058554
570.0,0.058684
575.0,0.058944
580.0,0.059208
585.0,0.05958
590.0,0.060016
595.0,0.060526
600.0,0.060993
605.0,0.061391
610.0,0.061943
615.0,0.062431
620.0,0.062757
625.0,0.063083
630.0,0.063316
635.0,0.063562
640.0,0.063707
645.0,0.063856
650.0,0.064
655.0,0.064034
660.0,0.064105
665.0,0.064306
670.0,0.064203
675.0,0.064439
680.0,0.064685
685.0,0.064646
690.0,0.064976
695.0,0.065109
700.0,0.065198
705.0,0.065405
710.0,0.065791
715.0,0.065851
720.0,0.066078
725.0,0.066585
730.0,0.066734
735.0,0.066768
740.0,0.066807
745.0,0.066593
750.0,0.06648
755.0,0.066447
760.0,0.065649
765.0,0.065525
770.0,0.065059
775.0,0.064725
780.0,0.064353
785.0,0.064033
790.0,0.063623
795.0,0.063125
800.0,0.062956
805.0,0.062537
810.0,0.062437
815.0,0.061738
820.0,0.060969
825.0,0.060803
830.0,0.060804
835.0,0.06069
840.0,0.060379
845.0,0.059917
850.0,0.060265
855.0,0.059126
860.0,0.059986
865.0,0.05918
870.0,0.058515
875.0,0.058834
880.0,0.059051
885.0,0.058688
890.0,0.058564
895.0,0.058727
900.0,0.058552
905.0,0.058237
910.0,0.058386
915.0,0.058424
920.0,0.058123
925.0,0.058406
930.0,0.058551
935.0,0.058532
940.0,0.058748
945.0,0.059186
950.0,0.059245
955.0,0.059458
960.0,0.060067
965.0,0.060187
970.0,0.059989
975.0,0.060393
980.0,0.060992
985.0,0.061013
990.0,0.061306
995.0,0.061622
1000.0,0.061717
1005.0,0.062218
1010.0,0.062097
1015.0,0.062529
1020.0,0.062326
1025.0,0.06264
1030.0,0.062787
1035.0,0.062854
1040.0,0.063112
1045.0,0.062851
1050.0,0.063133
1055.0,0.063315
1060.0,0.063005
1065.0,0.063508
1070.0,0.063343
1075.0,0.063344
1080.0,0.063157
1085.0,0.063658
1090.0,0.063577
1095.0,0.063605
1100.0,0.063763
1105.0,0.06374
1110.0,0.063862
1115.0,0.063828
1120.0,0.063767
1125.0,0.064029
1130.0,0.064018
1135.0,0.064021
1140.0,0.064432
1145.0,0.06445
1150.0,0.064681
1155.0,0.064522
1160.0,0.064724
1165.0,0.064882
1170.0,0.064874
1175.0,0.065104
1180.0,0.065119
1185.0,0.0651
1190.0,0.065271
1195.0,0.065316
1200.0,0.06551
1205.0,0.065551
1210.0,0.065581
1215.0,0.065727
1220.0,0.065616
1225.0,0.066002
1230.0,0.06588
1235.0,0.06586
1240.0,0.065988
1245.0,0.066185
1250.0,0.065984
1255.0,0.066211
1260.0,0.066158
1265.0,0.066271
1270.0,0.066471
1275.0,0.066587
1280.0,0.066493
1285.0,0.066646
1290.0,0.066578
1295.0,0.066696
1300.0,0.067001
1305.0,0.067127
1310.0,0.067232
1315.0,0.067538
1320.0,0.067332
1325.0,0.067454
1330.0,0.067688
1335.0,0.067922
1340.0,0.067907
1345.0,0.067883
1350.0,0.068259
1355.0,0.067948
1360.0,0.068139
1365.0,0.067993
1370.0,0.068419
1375.0,0.068806
1380.0,0.068802
1385.0,0.069089
1390.0,0.069331
1395.0,0.069311
1400.0,0.069242
1405.0,0.069292
1410.0,0.069481
1415.0,0.069681
1420.0,0.070271
1425.0,0.070333
1430.0,0.070434
1435.0,0.070684
1440.0,0.070583
1445.0,0.071037
1450.0,0.070985
1455.0,0.071267
1460.0,0.071452
1465.0,0.071679
1470.0,0.071661
1475.0,0.071418
1480.0,0.072117
1485.0,0.072149
1490.0,0.072237
1495.0,0.072497
1500.0,0.072246
1505.0,0.072606
1510.0,0.072517
1515.0,0.072717
1520.0,0.072979
1525.0,0.073177
1530.0,0.07318
1535.0,0.072844
1540.0,0.073041
1545.0,0.073412
1550.0,0.073425
1555.0,0.073681
1560.0,0.073847
1565.0,0.073954
1570.0,0.073774
1575.0,0.074394
1580.0,0.074241
1585.0,0.074363
1590.0,0.074496
1595.0,0.074754
1600.0,0.075126
1605.0,0.07497
1610.0,0.075472
1615.0,0.075356
1620.0,0.075272
1625.0,0.075244
1630.0,0.075627
1635.0,0.075722
1640.0,0.075836
1645.0,0.075544
1650.0,0.075853
1655.0,0.076302
1660.0,0.076187
1665.0,0.076107
1670.0,0.076676
1675.0,0.076382
1680.0,0.076646
1685.0,0.076814
1690.0,0.077315
1695.0,0.076974
1700.0,0.077649
1705.0,0.077346
1710.0,0.077597
1715.0,0.077585
1720.0,0.077778
1725.0,0.077805
1730.0,0.077853
1735.0,0.078038
1740.0,0.078042
1745.0,0.07821
1750.0,0.078512
1755.0,0.078427
1760.0,0.078665
1765.0,0.078853
1770.0,0.0786
1775.0,0.078758
1780.0,0.07907
1785.0,0.079105
1790.0,0.079005
1795.0,0.079415
1800.0,0.079354
1805.0,0.079398
1810.0,0.07975
1815.0,0.079756
1820.0,0.079872
1825.0,0.079978
1830.0,0.07986
1835.0,0.079935
1840.0,0.079879
1845.0,0.079757
1850.0,0.080204
1855.0,0.080282
1860.0,0.080232
1865.0,0.08035
1870.0,0.080598
1875.0,0.080831
1880.0,0.08035
1885.0,0.081029
1890.0,0.081239
1895.0,0.081
1900.0,0.081135
1905.0,0.081218
1910.0,0.081392
1915.0,0.081177
1920.0,0.081608
1925.0,0.081449
1930.0,0.081457
1935.0,0.081729
1940.0,0.082113
1945.0,0.081891
1950.0,0.082087
1955.0,0.082225
1960.0,0.08242
1965.0,0.082385
1970.0,0.082232
1975.0,0.082355
1980.0,0.08251
1985.0,0.082606
1990.0,0.082479
1995.0,0.082815
2000.0,0.082928
2005.0,0.083305
2010.0,0.083221
2015.0,0.083192
2020.0,0.08322
2025.0,0.083369
2030.0,0.083289
2035.0,0.083622
2040.0,0.083475
2045.0,0.08365
2050.0,0.083603
2055.0,0.083737
2060.0,0.083984
2065.0,0.083896
2070.0,0.083977
2075.0,0.083773
2080.0,0.084206
2085.0,0.084014
2090.0,0.084446
2095.0,0.084596
2100.0,0.084964
2105.0,0.084769
2110.0,0.084541
2115.0,0.084578
2120.0,0.085089
2125.0,0.084883
2130.0,0.084927
2135.0,0.085172
2140.0,0.085223
2145.0,0.085086
2150.0,0.085312
2155.0,0.085437
2160.0,0.085382
2165.0,0.085609
2170.0,0.085232
2175.0,0.085518
2180.0,0.085379
2185.0,0.085692
2190.0,0.085427
2195.0,0.085808
2200.0,0.085583
2205.0,0.085607
2210.0,0.086014
2215.0,0.085613
2220.0,0.085863
2225.0,0.086255
2230.0,0.086419
2235.0,0.086255
2240.0,0.086305
2245.0,0.086286
2250.0,0.086497
2255.0,0.086517
2260.0,0.086648
2265.0,0.086697
2270.0,0.086474
2275.0,0.086985
2280.0,0.087108
2285.0,0.087135
2290.0,0.08722
2295.0,0.087357
2300.0,0.087479
2305.0,0.087671
2310.0,0.087742
2315.0,0.087913
2320.0,0.087851
2325.0,0.087615
2330.0,0.087926
2335.0,0.087932
2340.0,0.088301
2345.0,0.088021
2350.0,0.088335
2355.0,0.088503
2360.0,0.088308
2365.0,0.088408
2370.0,0.088251
2375.0,0.088717
2380.0,0.088632
2385.0,0.088653
2390.0,0.088507
2395.0,0.088625
2400.0,0.088696
2405.0,0.088663
2410.0,0.088962
2415.0,0.089042
2420.0,0.089143
2425.0,0.088943
2430.0,0.089159
2435.0,0.089258
2440.0,0.088916
2445.0,0.089314
2450.0,0.089269
2455.0,0.089459
2460.0,0.089245
2465.0,0.089427
2470.0,0.089622
2475.0,0.089329
2480.0,0.089636
2485.0,0.089752
2490.0,0.089832
2495.0,0.089929
2500.0,0.089912
2502.0,0.089864
2503.2,0.089962
2504.41,0.089807
2505.62,0.089661
2506.83,0.089872
2508.05,0.090077
2509.26,0.090165
2510.48,0.090072
2511.69,0.090101
2512.91,0.090118
2514.13,0.089949
2515.35,0.090034
2516.57,0.090332
2517.79,0.090355
2519.02,0.090085
2520.24,0.090116
2521.47,0.089945
2522.69,0.089791
2523.92,0.089813
2525.15,0.089885
2526.38,0.08999
2527.61,0.089815
2528.85,0.089793
2530.08,0.090017
2531.32,0.08981
2532.55,0.089769
2533.79,0.090056
2535.03,0.089824
2536.27,0.089696
2537.51,0.089814
2538.75,0.089874
2540.0,0.090127
2541.24,0.090267
2542.49,0.090025
2543.74,0.089686
2544.99,0.089721
2546.24,0.090016
2547.49,0.09001
2548.74,0.089723
2549.99,0.089603
2551.25,0.089584
2552.5,0.089653
2553.76,0.0898
2555.02,0.089729
2556.28,0.089673
2557.54,0.089614
2558.8,0.089533
2560.07,0.089721
2561.33,0.089745
2562.6,0.089626
2563.86,0.089707
2565.13,0.089948
2566.4,0.089936
2567.67,0.089869
2568.95,0.089695
2570.22,0.089547
2571.5,0.089541
2572.77,0.089635
2574.05,0.089765
2575.33,0.089916
2576.61,0.089897
2577.89,0.089675
2579.17,0.089503
2580.46,0.089611
2581.74,0.089975
2583.03,0.090057
2584.31,0.089662
2585.6,0.08955
2586.89,0.089788
2588.19,0.089864
2589.48,0.090026
2590.77,0.090061
2592.07,0.0896
2593.36,0.089451
2594.66,0.089394
2595.96,0.089437
2597.26,0.089908
2598.56,0.089904
2599.87,0.089644
2601.17,0.089512
2602.48,0.089428
2603.78,0.089442
2605.09,0.089503
2606.4,0.089487
2607.71,0.089496
2609.03,0.08968
2610.34,0.089653
2611.66,0.089563
2612.97,0.089616
2614.29,0.089413
2615.61,0.089468
2616.93,0.089573
2618.25,0.089907
2619.57,0.089998
2620.9,0.089716
2622.22,0.089896
2623.55,0.090236
2624.88,0.089998
2626.21,0.089711
2627.54,0.089658
2628.87,0.089633
2630.21,0.089565
2631.54,0.089635
2632.88,0.089736
2634.21,0.089478
2635.55,0.08936
2636.89,0.089498
2638.24,0.08951
2639.58,0.089405
2640.92,0.089429
2642.27,0.089514
2643.62,0.089428
2644.97,0.089409
2646.32,0.08941
2647.67,0.089465
2649.02,0.089457
2650.38,0.089062
2651.73,0.088938
2653.09,0.089067
2654.45,0.08931
2655.81,0.089399
2657.17,0.089353
2658.53,0.089395
2659.89,0.089238
2661.26,0.089211
2662.63,0.089115
2664.0,0.089035
2665.36,0.089164
2666.74,0.089155
2668.11,0.089438
2669.48,0.089407
2670.86,0.08896
2672.23,0.089081
2673.61,0.089129
2674.99,0.089037
2676.37,0.089136
2677.76,0.089167
2679.14,0.089274
2680.52,0.08914
2681.91,0.089093
2683.3,0.089057
2684.69,0.088962
2686.08,0.088952
2687.47,0.089088
2688.87,0.08898
2690.26,0.088645
2691.66,0.088532
2693.06,0.088578
2694.46,0.088661
2695.86,0.088706
2697.26,0.088636
2698.66,0.088574
2700.07,0.088571
2701.48,0.088288
2702.89,0.088149
2704.3,0.088191
2705.71,0.088253
2707.12,0.088095
2708.53,0.088098
2709.95,0.088193
2711.37,0.088165
2712.79,0.088105
2714.21,0.088148
2715.63,0.088304
2717.05,0.088387
2718.48,0.088324
2719.9,0.088203
2721.33,0.088133
2722.76,0.088306
2724.19,0.088547
2725.62,0.088556
2727.06,0.088338
2728.49,0.088161
2729.93,0.08817
2731.37,0.08813
2732.81,0.088129
2734.25,0.088159
2735.69,0.088378
2737.14,0.088491
2738.58,0.088245
2740.03,0.08814
2741.48,0.088233
2742.93,0.088475
2744.38,0.088429
2745.83,0.088336
2747.29,0.088446
2748.75,0.088329
2750.2,0.088182
2751.66,0.088315
2753.13,0.088182
2754.59,0.087995
2756.05,0.088021
2757.52,0.088224
2758.99,0.088427
2760.46,0.088337
2761.93,0.088305
2763.4,0.088113
2764.87,0.087999
2766.35,0.088149
2767.82,0.08819
2769.3,0.088114
2770.78,0.088065
2772.26,0.087976
2773.75,0.08787
2775.23,0.087912
2776.72,0.08798
2778.21,0.087923
2779.7,0.087992
2781.19,0.088012
2782.68,0.087981
2784.18,0.087945
2785.67,0.087776
2787.17,0.087769
2788.67,0.087874
2790.17,0.087898
2791.67,0.087956
2793.18,0.087914
2794.68,0.087768
2796.19,0.087739
2797.7,0.087732
2799.21,0.08777
2800.72,0.087796
2802.24,0.087686
2803.75,0.08772
2805.27,0.087832
2806.79,0.087823
2808.31,0.087724
2809.83,0.087733
2811.35,0.087733
2812.88,0.087704
2814.41,0.087545
2815.93,0.087248
2817.46,0.087313
2819.0,0.087516
2820.53,0.08742
2822.07,0.087288
2823.6,0.087174
2825.14,0.08715
2826.68,0.087154
2828.22,0.087042
2829.77,0.087129
2831.31,0.087213
2832.86,0.087289
2834.41,0.087294
2835.96,0.087275
2837.51,0.087467
2839.07,0.087447
2840.62,0.087462
2842.18,0.087496
2843.74,0.087328
2845.3,0.087149
2846.86,0.087043
2848.43,0.087124
2849.99,0.0871
2851.56,0.087
2853.13,0.087013
2854.7,0.087017
2856.27,0.087059
2857.85,0.087121
2859.42,0.087096
2861.0,0.087074
2862.58,0.087149
2864.16,0.087146
2865.75,0.087033
2867.33,0.08699
2868.92,0.086887
2870.51,0.086801
2872.1,0.086903
2873.69,0.086809
2875.28,0.086931
2876.88,0.087118
2878.48,0.087032
2880.07,0.086914
2881.68,0.086883
2883.28,0.086805
2884.88,0.086686
2886.49,0.086544
2888.1,0.086665
2889.71,0.086912
2891.32,0.086839
2892.93,0.086741
2894.55,0.08686
2896.16,0.086851
2897.78,0.086722
2899.4,0.086763
2901.03,0.086901
2902.65,0.086951
2904.28,0.086934
2905.91,0.086845
2907.54,0.086728
2909.17,0.086643
2910.8,0.086681
2912.44,0.086743
2914.07,0.086767
2915.71,0.086745
2917.35,0.086799
2918.99,0.086858
2920.64,0.086603
2922.29,0.086414
2923.93,0.08659
2925.58,0.086659
2927.24,0.086587
2928.89,0.086553
2930.55,0.086594
2932.2,0.086571
2933.86,0.086546
2935.52,0.086514
2937.19,0.086474
2938.85,0.086555
2940.52,0.086522
2942.19,0.086439
2943.86,0.086537
2945.53,0.086729
2947.21,0.086574
2948.88,0.086396
2950.56,0.086362
2952.24,0.086291
2953.92,0.086212
2955.61,0.086232
2957.29,0.086464
2958.98,0.086598
2960.67,0.086525
2962.36,0.086446
2964.06,0.086342
2965.75,0.086415
2967.45,0.086352
2969.15,0.086182
2970.85,0.086166
2972.55,0.086317
2974.26,0.086353
2975.97,0.086285
2977.68,0.086283
2979.39,0.086239
2981.1,0.086187
2982.82,0.086195
2984.53,0.086151
2986.25,0.086135
2987.97,0.086262
2989.7,0.086191
2991.42,0.086109
2993.15,0.086026
2994.88,0.085987
2996.61,0.086147
2998.34,0.086252
3000.08,0.086196
3001.82,0.08617
3003.55,0.086093
3005.3,0.085938
3007.04,0.085806
3008.78,0.08578
3010.53,0.086003
3012.28,0.086215
3014.03,0.086172
3015.79,0.086066
3017.54,0.085982
3019.3,0.085987
3021.06,0.085991
3022.82,0.086002
3024.58,0.08598
3026.35,0.085944
3028.12,0.085928
3029.89,0.085923
3031.66,0.08606
3033.43,0.086165
3035.21,0.0862
3036.99,0.086193
3038.77,0.086152
3040.55,0.086127
3042.33,0.085987
3044.12,0.08591
3045.91,0.085986
3047.7,0.086029
3049.49,0.085955
3051.29,0.08587
3053.08,0.085883
3054.88,0.086004
3056.68,0.085981
3058.49,0.085904
3060.29,0.085847
3062.1,0.085904
3063.91,0.086037
3065.72,0.086035
3067.54,0.085986
3069.35,0.086002
3071.17,0.085943
3072.99,0.085816
3074.81,0.085831
3076.64,0.085966
3078.47,0.086
3080.29,0.085965
3082.13,0.085898
3083.96,0.085753
3085.79,0.085629
3087.63,0.085613
3089.47,0.085593
3091.31,0.085652
3093.16,0.085682
3095.01,0.085691
3096.85,0.085762
3098.71,0.08578
3100.56,0.085787
3102.41,0.085885
3104.27,0.085866
3106.13,0.085712
3107.99,0.085706
3109.86,0.085772
3111.73,0.085728
3113.59,0.085536
3115.47,0.085491
3117.34,0.085568
3119.21,0.085676
3121.09,0.085699
3122.97,0.085702
3124.86,0.085752
3126.74,0.085795
3128.63,0.085779
3130.52,0.085747
3132.41,0.085634
3134.3,0.085639
3136.2,0.085702
3138.1,0.085694
3140.0,0.085733
3141.9,0.085672
3143.81,0.08559
3145.71,0.085608
3147.62,0.085667
3149.54,0.085694
3151.45,0.085723
3153.37,0.085793
3155.29,0.085681
3157.21,0.085714
3159.13,0.085812
3161.06,0.085756
3162.99,0.08567
3164.92,0.085756
3166.85,0.085769
3168.79,0.085606
3170.72,0.085577
3172.67,0.085588
3174.61,0.085691
3176.55,0.085767
3178.5,0.085717
3180.45,0.085731
3182.4,0.085668
3184.36,0.085583
3186.32,0.085549
3188.27,0.085628
3190.24,0.085754
3192.2,0.085772
3194.17,0.085721
3196.14,0.085686
3198.11,0.085706
3200.08,0.08569
3202.06,0.08571
3204.04,0.085777
3206.02,0.085765
3208.0,0.085725
3209.99,0.085686
3211.98,0.085685
3213.97,0.085668
3215.96,0.085665
3217.96,0.085751
3219.96,0.085812
3221.96,0.085684
3223.96,0.085716
3225.97,0.085819
3227.98,0.085931
3229.99,0.085857
3232.0,0.085738
3234.02,0.085713
3236.04,0.085685
3238.06,0.085735
3240.08,0.085753
3242.11,0.085825
3244.14,0.085712
3246.17,0.085597
3248.2,0.085661
3250.24,0.085715
3252.28,0.085752
3254.32,0.085847
3256.37,0.085828
3258.41,0.085746
3260.46,0.085761
3262.51,0.085883
3264.57,0.085875
3266.63,0.085801
3268.69,0.085778
3270.75,0.085804
3272.81,0.085811
3274.88,0.085716
3276.95,0.08578
3279.02,0.085707
3281.1,0.085649
3283.18,0.085742
3285.26,0.085769
3287.34,0.085745
3289.43,0.085768
3291.51,0.085803
3293.61,0.085853
3295.7,0.085865
3297.8,0.085876
3299.9,0.085875
3302.0,0.085828
3304.1,0.085886
3306.21,0.085892
3308.32,0.085834
3310.43,0.085902
3312.55,0.085952
3314.66,0.085915
3316.79,0.085853
3318.91,0.08583
3321.03,0.085934
3323.16,0.085992
3325.29,0.086013
3327.43,0.085981
3329.57,0.085937
3331.71,0.085944
3333.85,0.086014
3335.99,0.085881
3338.14,0.085868
3340.29,0.085966
3342.45,0.085971
3344.6,0.085847
3346.76,0.085805
3348.92,0.085789
3351.09,0.085824
3353.26,0.085899
3355.43,0.085887
3357.6,0.08587
3359.78,0.08587
3361.96,0.085896
3364.14,0.085893
3366.32,0.085919
3368.51,0.085977
3370.7,0.086051
3372.89,0.086146
3375.09,0.086058
3377.29,0.085982
3379.49,0.086039
3381.69,0.08616
3383.9,0.086105
3386.11,0.08612
3388.32,0.086164
3390.54,0.086094
3392.76,0.086139
3394.98,0.08603
3397.21,0.085991
3399.43,0.086039
3401.66,0.086128
3403.9,0.086126
3406.13,0.086144
3408.37,0.086123
3410.61,0.086094
3412.86,0.086083
3415.11,0.085996
3417.36,0.086081
3419.61,0.086198
3421.87,0.086195
3424.13,0.086222
3426.39,0.086307
3428.66,0.086336
3430.93,0.086322
3433.2,0.086291
3435.48,0.086324
3437.76,0.086313
3440.04,0.086297
3442.32,0.086252
3444.61,0.086181
3446.9,0.086253
3449.19,0.086303
3451.49,0.086339
3453.79,0.086389
3456.09,0.086348
3458.4,0.086295
3460.7,0.086256
3463.02,0.086302
3465.33,0.086387
3467.65,0.086389
3469.97,0.086351
3472.29,0.086356
3474.62,0.086371
3476.95,0.086369
3479.29,0.086436
3481.62,0.086385
3483.96,0.086344
3486.3,0.086411
3488.65,0.086498
3491.0,0.086491
3493.35,0.086449
3495.71,0.086452
3498.07,0.086507
3500.43,0.086588
3502.79,0.086617
3505.16,0.086608
3507.53,0.086568
3509.91,0.086612
3512.29,0.086661
3514.67,0.086662
3517.05,0.086711
3519.44,0.086702
3521.83,0.086654
3524.23,0.086672
3526.62,0.0867
3529.02,0.086715
3531.43,0.086753
3533.83,0.086725
3536.24,0.086764
3538.66,0.086806
3541.08,0.08679
3543.5,0.086767
3545.92,0.086783
3548.35,0.086836
3550.78,0.086862
3553.21,0.086859
3555.65,0.086903
3558.09,0.086965
3560.53,0.087021
3562.98,0.086999
3565.43,0.086946
3567.88,0.086926
3570.34,0.087019
3572.8,0.087108
3575.27,0.087137
3577.73,0.087097
3580.2,0.087127
3582.68,0.087131
3585.16,0.087146
3587.64,0.087124
3590.12,0.087162
3592.61,0.087136
3595.1,0.08707
3597.6,0.087223
3600.09,0.087331
3602.6,0.087202
3605.1,0.087164
3607.61,0.087222
3610.12,0.087253
3612.64,0.087334
3615.16,0.087363
3617.68,0.087432
3620.21,0.087483
3622.74,0.08749
3625.27,0.087502
3627.81,0.087434
3630.35,0.087431
3632.89,0.087466
3635.44,0.087469
3637.99,0.087527
3640.54,0.087608
3643.1,0.08768
3645.66,0.087652
3648.23,0.08764
3650.8,0.087634
3653.37,0.087541
3655.95,0.087489
3658.53,0.087636
3661.11,0.087746
3663.7,0.087658
3666.29,0.087571
3668.89,0.087598
3671.48,0.08763
3674.09,0.087732
3676.69,0.087836
3679.3,0.087845
3681.91,0.08779
3684.53,0.087817
3687.15,0.087927
3689.78,0.087993
3692.4,0.087926
3695.04,0.08795
3697.67,0.088051
3700.31,0.088089
3702.95,0.088041
3705.6,0.087928
3708.25,0.087917
3710.91,0.087987
3713.56,0.088042
3716.23,0.088103
3718.89,0.088152
3721.56,0.088178
3724.23,0.088161
3726.91,0.088222
3729.59,0.088212
3732.28,0.088202
3734.97,0.088256
3737.66,0.088314
3740.36,0.088351
3743.06,0.088297
3745.76,0.088271
3748.47,0.088348
3751.18,0.088403
