Database of Origin,USGS Spectral Database
Sample Description,See USGS database for additional info
Date Added,2017-07-03 05:43:31.776226

Data ID,USGS_alu19          
Sample ID,alunite_res2.1468
Mineral Name,alunite
Material Class,Sulfate

Wavelength
1299.94, 0.497000
1300.26, 0.493010
1300.59, 0.492380
1300.92, 0.494130
1301.24, 0.496510
1301.57, 0.496160
1301.9, 0.502530
1302.22, 0.498260
1302.55, 0.501620
1302.88, 0.500430
1303.21, 0.497140
1303.53, 0.494060
1303.86, 0.498680
1304.19, 0.500010
1304.52, 0.497560
1304.85, 0.495880
1305.17, 0.501270
1305.5, 0.497910
1305.83, 0.499100
1306.16, 0.497840
1306.49, 0.501200
1306.82, 0.499240
1307.15, 0.503790
1307.48, 0.498470
1307.81, 0.494970
1308.14, 0.491540
1308.47, 0.494690
1308.8, 0.492240
1309.13, 0.496930
1309.46, 0.497140
1309.79, 0.501550
1310.12, 0.499660
1310.45, 0.497700
1310.79, 0.494550
1311.12, 0.503930
1311.45, 0.505050
1311.78, 0.500360
1312.11, 0.496860
1312.44, 0.499030
1312.78, 0.498890
1313.11, 0.501550
1313.44, 0.500920
1313.77, 0.501620
1314.11, 0.496090
1314.44, 0.498470
1314.77, 0.500780
1315.11, 0.505120
1315.44, 0.501480
1315.78, 0.502670
1316.11, 0.502950
1316.44, 0.508270
1316.78, 0.506660
1317.11, 0.507780
1317.45, 0.502110
1317.78, 0.505540
1318.12, 0.505330
1318.45, 0.510580
1318.79, 0.508410
1319.12, 0.503860
1319.46, 0.497560
1319.8, 0.508760
1320.13, 0.499800
1320.47, 0.492030
1320.8, 0.491120
1321.14, 0.501410
1321.48, 0.501340
1321.81, 0.504630
1322.15, 0.501060
1322.49, 0.495670
1322.83, 0.493010
1323.16, 0.506590
1323.5, 0.511350
1323.84, 0.509320
1324.18, 0.507500
1324.52, 0.503790
1324.85, 0.501970
1325.19, 0.517510
1325.53, 0.517020
1325.87, 0.509460
1326.21, 0.501550
1326.55, 0.519260
1326.89, 0.516390
1327.23, 0.493570
1331.66, 0.513380
1332.0, 0.518980
1332.34, 0.494620
1332.69, 0.503020
1333.03, 0.510370
1333.37, 0.499030
1333.72, 0.507920
1334.06, 0.517510
1334.4, 0.511350
1334.75, 0.505540
1335.09, 0.503860
1335.43, 0.506590
1335.78, 0.508620
1336.12, 0.511490
1336.47, 0.507150
1336.81, 0.506940
1337.16, 0.502180
1337.5, 0.508970
1337.85, 0.520730
1338.19, 0.516110
1338.54, 0.503790
1338.88, 0.504490
1339.23, 0.504560
1339.58, 0.509040
1339.92, 0.510230
1340.27, 0.510020
1340.61, 0.507570
1340.96, 0.509320
1341.31, 0.504770
1341.66, 0.504070
1342.0, 0.506450
1342.35, 0.510720
1342.7, 0.514430
1343.05, 0.515410
1343.39, 0.509460
1343.74, 0.509460
1344.09, 0.509460
1344.44, 0.509250
1344.79, 0.511910
1345.14, 0.517790
1345.48, 0.514430
1345.83, 0.514710
1346.18, 0.512890
1346.53, 0.514360
1346.88, 0.514010
1347.23, 0.514780
1347.58, 0.510300
1347.93, 0.512260
1348.28, 0.514010
1348.64, 0.514360
1348.99, 0.511840
1349.34, 0.509110
1349.69, 0.507850
1350.04, 0.511350
1350.39, 0.510160
1350.74, 0.512960
1351.1, 0.509810
1351.45, 0.510650
1351.8, 0.512120
1352.15, 0.517300
1352.51, 0.517650
1352.86, 0.515620
1353.21, 0.514010
1353.56, 0.515130
1353.92, 0.514290
1354.27, 0.516460
1354.63, 0.513730
1354.98, 0.514990
1355.33, 0.513520
1355.69, 0.516530
1356.04, 0.517510
1356.4, 0.516740
1356.75, 0.514500
1357.11, 0.515130
1357.46, 0.514290
1357.82, 0.515970
1358.18, 0.514570
1358.53, 0.516180
1358.89, 0.515200
1359.24, 0.515200
1359.6, 0.515200
1359.96, 0.517650
1360.31, 0.518700
1360.67, 0.522550
1361.03, 0.519750
1361.39, 0.520170
1361.74, 0.518210
1362.1, 0.518070
1362.46, 0.515480
1362.82, 0.518070
1363.18, 0.513030
1363.53, 0.512470
1363.89, 0.512120
1364.25, 0.513730
1364.61, 0.512400
1364.97, 0.515410
1365.33, 0.516670
1365.69, 0.514780
1366.05, 0.516250
1366.41, 0.523740
1366.77, 0.521640
1367.13, 0.521920
1367.49, 0.519610
1367.85, 0.519890
1368.21, 0.518980
1368.57, 0.522200
1368.93, 0.522690
1369.3, 0.527100
1369.66, 0.524230
1370.02, 0.522060
1370.38, 0.522200
1370.74, 0.521990
1371.11, 0.521080
1371.47, 0.521990
1371.83, 0.521150
1372.19, 0.525000
1372.56, 0.522970
1372.92, 0.522270
1373.29, 0.519470
1373.65, 0.520520
1374.01, 0.518140
1374.38, 0.519260
1374.74, 0.518630
1375.11, 0.520450
1375.47, 0.521640
1375.84, 0.524160
1376.2, 0.524300
1376.57, 0.525630
1376.93, 0.521710
1377.3, 0.522200
1377.67, 0.521290
1378.03, 0.519330
1378.4, 0.521500
1378.76, 0.521920
1379.13, 0.517370
1379.5, 0.519400
1379.87, 0.519260
1380.23, 0.519330
1380.6, 0.518420
1380.97, 0.521010
1381.34, 0.520310
1381.7, 0.522620
1382.07, 0.518560
1382.44, 0.515620
1382.81, 0.515760
1383.18, 0.517650
1383.55, 0.515760
1383.92, 0.518560
1384.29, 0.519260
1384.66, 0.521360
1385.03, 0.519680
1385.4, 0.519190
1385.77, 0.517580
1386.14, 0.519400
1386.51, 0.518980
1386.88, 0.516810
1387.25, 0.514500
1387.62, 0.518770
1387.99, 0.518980
1388.36, 0.515900
1388.74, 0.511980
1389.11, 0.515760
1389.48, 0.516670
1389.85, 0.517580
1390.23, 0.518140
1390.6, 0.519820
1390.97, 0.516040
1391.35, 0.517230
1391.72, 0.514850
1392.09, 0.514710
1392.47, 0.514570
1392.84, 0.517090
1393.21, 0.517720
1393.59, 0.519470
1393.96, 0.519400
1394.34, 0.518840
1394.71, 0.514290
1395.09, 0.517300
1395.46, 0.517860
1395.84, 0.518490
1396.22, 0.516670
1396.59, 0.516040
1396.97, 0.515060
1397.35, 0.515970
1397.72, 0.512960
1398.1, 0.512820
1398.48, 0.512680
1398.85, 0.514850
1399.23, 0.513520
1399.61, 0.515480
1399.99, 0.515270
1400.37, 0.515480
1400.74, 0.512610
1401.12, 0.510300
1401.5, 0.508760
1401.88, 0.509670
1402.26, 0.508480
1402.64, 0.510090
1403.02, 0.511000
1403.4, 0.511350
1403.78, 0.509460
1404.16, 0.511140
1404.54, 0.510230
1404.92, 0.511000
1405.3, 0.510090
1405.68, 0.512400
1406.06, 0.511840
1406.44, 0.512540
1406.83, 0.511910
1407.21, 0.508410
1407.59, 0.504770
1407.97, 0.509110
1408.35, 0.507220
1408.74, 0.508550
1409.12, 0.507990
1409.5, 0.508060
1409.89, 0.504560
1410.27, 0.504770
1410.65, 0.503650
1411.04, 0.505330
1411.42, 0.505890
1411.81, 0.504630
1412.19, 0.502950
1412.58, 0.505750
1412.96, 0.502460
1413.35, 0.502040
1413.73, 0.503790
1414.12, 0.504560
1414.5, 0.498610
1414.89, 0.498470
1415.28, 0.500010
1415.66, 0.501900
1416.05, 0.502110
1416.44, 0.502740
1416.82, 0.501480
1417.21, 0.502250
1417.6, 0.501060
1417.98, 0.502110
1418.37, 0.498890
1418.76, 0.498540
1419.15, 0.496930
1419.54, 0.495040
1419.93, 0.494690
1420.32, 0.494550
1420.71, 0.490700
1421.09, 0.487270
1421.48, 0.484050
1421.88, 0.483210
1422.27, 0.475090
1422.66, 0.470260
1423.05, 0.462980
1423.44, 0.458360
1423.83, 0.451430
1424.22, 0.445200
1424.61, 0.438970
1425.0, 0.430010
1425.39, 0.418810
1425.78, 0.415590
1426.18, 0.421960
1426.57, 0.435960
1426.96, 0.446530
1427.36, 0.453250
1427.75, 0.456960
1428.14, 0.460180
1428.54, 0.458290
1428.93, 0.459480
1429.32, 0.461930
1429.72, 0.465010
1430.11, 0.462840
1430.51, 0.461860
1430.9, 0.458640
1431.3, 0.453530
1431.69, 0.450730
1432.09, 0.455420
1432.48, 0.462700
1432.88, 0.469210
1433.28, 0.472500
1433.67, 0.476980
1434.07, 0.478310
1434.46, 0.482160
1434.86, 0.483070
1435.26, 0.485240
1435.66, 0.485800
1436.05, 0.491540
1436.45, 0.493010
1436.85, 0.496160
1437.25, 0.498120
1437.65, 0.498330
1438.05, 0.496300
1438.44, 0.495320
1438.84, 0.494620
1439.24, 0.495880
1439.64, 0.496580
1440.04, 0.499240
1440.44, 0.498190
1440.84, 0.498260
1441.24, 0.495320
1441.65, 0.496580
1442.05, 0.498330
1442.45, 0.499870
1442.85, 0.496020
1443.25, 0.492310
1443.65, 0.491820
1444.05, 0.494130
1444.46, 0.493150
1444.86, 0.494340
1445.26, 0.493570
1445.67, 0.494060
1446.07, 0.495390
1446.47, 0.497000
1446.88, 0.495670
1447.28, 0.496510
1447.68, 0.495810
1448.09, 0.495530
1448.49, 0.493290
1448.9, 0.492800
1449.3, 0.491050
1449.71, 0.490700
1450.11, 0.490700
1450.52, 0.491190
1450.93, 0.488670
1451.33, 0.488040
1451.74, 0.489090
1452.14, 0.488740
1452.55, 0.485800
1452.96, 0.480970
1453.36, 0.481040
1453.77, 0.485450
1454.18, 0.484540
1454.59, 0.482580
1455.0, 0.480410
1455.41, 0.483280
1455.81, 0.482440
1456.22, 0.482230
1456.63, 0.481670
1457.04, 0.479710
1457.45, 0.477890
1457.86, 0.476980
1458.27, 0.476490
1458.68, 0.478310
1459.09, 0.476980
1459.5, 0.477960
1459.91, 0.478030
1460.32, 0.479710
1460.74, 0.478170
1461.15, 0.479850
1461.56, 0.483000
1461.97, 0.484750
1462.39, 0.482580
1462.8, 0.482720
1463.21, 0.483350
1463.62, 0.485170
1464.04, 0.485240
1464.45, 0.485590
1464.86, 0.483910
1465.28, 0.484050
1465.69, 0.482580
1466.11, 0.485030
1466.52, 0.487690
1466.94, 0.490140
1467.35, 0.486920
1467.77, 0.485660
1468.18, 0.484750
1468.6, 0.483700
1469.02, 0.479710
1469.43, 0.478660
1469.85, 0.480760
1470.27, 0.479920
1470.68, 0.475510
1471.1, 0.472850
1471.52, 0.469420
1471.94, 0.472360
1472.35, 0.466200
1472.77, 0.461650
1473.19, 0.461160
1473.61, 0.455280
1474.03, 0.448700
1474.45, 0.445270
1474.87, 0.435400
1475.29, 0.421120
1475.71, 0.407750
1476.13, 0.395290
1476.55, 0.383110
1476.97, 0.374990
1477.39, 0.371560
1477.81, 0.371420
1478.23, 0.377790
1478.65, 0.386680
1479.07, 0.392490
1479.5, 0.405720
1479.92, 0.423220
1480.34, 0.434070
1480.76, 0.438690
1481.19, 0.450730
1481.61, 0.470610
1482.03, 0.484890
1482.46, 0.492170
1482.88, 0.494900
1483.31, 0.488320
1483.73, 0.488320
1484.16, 0.493220
1484.58, 0.500150
1485.01, 0.502810
1485.43, 0.504490
1485.86, 0.501410
1486.28, 0.504420
1486.71, 0.508900
1487.14, 0.508970
1487.56, 0.509040
1487.99, 0.510440
1488.42, 0.509670
1488.84, 0.509040
1489.27, 0.504770
1489.7, 0.507570
1490.13, 0.506800
1490.56, 0.507990
1490.98, 0.510790
1491.41, 0.512890
1491.84, 0.514640
1492.27, 0.514710
1492.7, 0.511560
1493.13, 0.509740
1493.56, 0.507990
1493.99, 0.510230
1494.42, 0.513240
1494.85, 0.512050
1495.29, 0.509460
1495.72, 0.511140
1496.15, 0.512050
1496.58, 0.512750
1497.01, 0.511280
1497.44, 0.514430
1497.88, 0.514640
1498.31, 0.515200
1498.74, 0.515270
1499.18, 0.515830
1499.61, 0.516040
1500.04, 0.516250
1500.48, 0.514990
1500.91, 0.518140
1501.35, 0.518420
1501.78, 0.518000
1502.22, 0.516880
1502.65, 0.518490
1503.09, 0.519400
1503.53, 0.521010
1503.96, 0.521290
1504.4, 0.521360
1504.83, 0.521010
1505.27, 0.521850
1505.71, 0.522620
1506.15, 0.524790
1506.58, 0.523250
1507.02, 0.524860
1507.46, 0.527030
1507.9, 0.527170
1508.34, 0.524580
1508.78, 0.526190
1509.21, 0.526540
1509.66, 0.526960
1510.09, 0.527100
1510.53, 0.528360
1510.97, 0.528010
1511.42, 0.528150
1511.86, 0.527100
1512.3, 0.528780
1512.74, 0.530880
1513.18, 0.532630
1513.62, 0.532420
1514.06, 0.532770
1514.51, 0.530390
1514.95, 0.531930
1515.39, 0.532350
1515.83, 0.531650
1516.28, 0.530600
1516.72, 0.532070
1517.16, 0.531300
1517.61, 0.532000
1518.05, 0.532700
1518.5, 0.533120
1518.94, 0.531860
1519.39, 0.533050
1519.83, 0.532840
1520.28, 0.533400
1520.73, 0.532070
1521.17, 0.532350
1521.62, 0.533400
1522.07, 0.533750
1522.51, 0.533820
1522.96, 0.534660
1523.41, 0.533750
1523.85, 0.535360
1524.3, 0.535500
1524.75, 0.536200
1525.2, 0.535220
1525.65, 0.535080
1526.1, 0.535640
1526.55, 0.538370
1527.0, 0.537180
1527.45, 0.536550
1527.9, 0.536200
1528.35, 0.535570
1528.8, 0.534240
1529.25, 0.535430
1529.7, 0.535850
1530.15, 0.536620
1530.6, 0.535220
1531.05, 0.535290
1531.51, 0.535500
1531.96, 0.535850
1532.41, 0.534590
1532.87, 0.535850
1533.32, 0.536060
1533.77, 0.536060
1534.23, 0.535990
1534.68, 0.537880
1535.14, 0.538510
1535.59, 0.538230
1536.05, 0.537180
1536.5, 0.538160
1536.96, 0.537250
1537.41, 0.538230
1537.87, 0.537740
1538.32, 0.539350
1538.78, 0.537950
1539.24, 0.538440
1539.7, 0.537180
1540.15, 0.537320
1540.61, 0.537110
1541.07, 0.537600
1541.53, 0.536340
1541.98, 0.537740
1542.44, 0.538230
1542.9, 0.538020
1543.36, 0.537390
1543.82, 0.537810
1544.28, 0.537670
1544.74, 0.538930
1545.2, 0.539560
1545.66, 0.539490
1546.12, 0.538720
1546.59, 0.540890
1547.05, 0.541590
1547.51, 0.541240
1547.97, 0.539420
1548.43, 0.539700
1548.9, 0.539000
1549.36, 0.539490
1549.82, 0.540820
1550.29, 0.542570
1550.75, 0.540960
1551.21, 0.539630
1551.68, 0.538860
1552.14, 0.540750
1552.61, 0.541590
1553.07, 0.541940
1553.54, 0.541380
1554.0, 0.541940
1554.47, 0.542080
1554.93, 0.541310
1555.4, 0.540470
1555.87, 0.541380
1556.34, 0.540960
1556.8, 0.540400
1557.27, 0.539140
1557.74, 0.540680
1558.21, 0.541730
1558.68, 0.542290
1559.14, 0.541170
1559.61, 0.540330
1560.08, 0.540120
1560.55, 0.541590
1561.02, 0.540120
1561.49, 0.540820
1561.96, 0.541240
1562.43, 0.542080
1562.9, 0.541030
1563.38, 0.541520
1563.85, 0.541240
1564.32, 0.541870
1564.79, 0.542710
1565.26, 0.543550
1565.74, 0.542080
1566.21, 0.541660
1566.68, 0.542150
1567.16, 0.543200
1567.63, 0.542080
1568.1, 0.542570
1568.58, 0.542570
1569.05, 0.542990
1569.53, 0.542360
1570.0, 0.542290
1570.48, 0.540960
1570.96, 0.541380
1571.43, 0.540890
1571.91, 0.542360
1572.39, 0.542500
1572.86, 0.542920
1573.34, 0.542220
1573.82, 0.541940
1574.3, 0.541170
1574.77, 0.542780
1575.25, 0.542570
1575.73, 0.542570
1576.21, 0.542430
1576.69, 0.543410
1577.17, 0.543550
1577.65, 0.543970
1578.13, 0.543480
1578.61, 0.544950
1579.09, 0.544530
1579.57, 0.543690
1580.05, 0.542430
1580.54, 0.543130
1581.02, 0.542570
1581.5, 0.543130
1581.98, 0.543830
1582.47, 0.544600
1582.95, 0.542990
1583.43, 0.543830
1583.92, 0.543970
1584.4, 0.544530
1584.88, 0.543480
1585.37, 0.543060
1585.85, 0.543130
1586.34, 0.543760
1586.82, 0.543410
1587.31, 0.544880
1587.8, 0.544950
1588.28, 0.545510
1588.77, 0.544460
1589.26, 0.542850
1589.74, 0.542780
1590.23, 0.545090
1590.72, 0.546000
1591.21, 0.547050
1591.7, 0.545230
1592.19, 0.544880
1592.67, 0.544250
1593.16, 0.544040
1593.65, 0.542780
1594.14, 0.543200
1594.63, 0.543130
1595.12, 0.543060
1595.61, 0.543900
1596.11, 0.545230
1596.6, 0.544110
1597.09, 0.542780
1597.58, 0.542640
1598.08, 0.544320
1598.57, 0.545300
1599.06, 0.545580
1599.55, 0.544600
1600.05, 0.545090
1600.54, 0.545090
1601.04, 0.545300
1601.53, 0.544180
1602.03, 0.544670
1602.52, 0.544180
1603.02, 0.545020
1603.51, 0.545230
1604.01, 0.545580
1604.5, 0.544810
1605.0, 0.545580
1605.5, 0.545160
1606.0, 0.546280
1606.49, 0.546280
1606.99, 0.546000
1607.49, 0.543550
1607.99, 0.542990
1608.49, 0.544740
1608.99, 0.546420
1609.49, 0.545020
1609.99, 0.544530
1610.49, 0.544390
1610.99, 0.545720
1611.49, 0.544390
1611.99, 0.544180
1612.49, 0.544950
1612.99, 0.545860
1613.49, 0.545580
1614.0, 0.545230
1614.5, 0.546280
1615.0, 0.546910
1615.51, 0.545790
1616.01, 0.545650
1616.51, 0.544600
1617.02, 0.546070
1617.52, 0.546840
1618.03, 0.546070
1618.53, 0.545720
1619.04, 0.545580
1619.54, 0.544460
1620.05, 0.545090
1620.55, 0.546140
1621.06, 0.546280
1621.57, 0.545510
1622.08, 0.546700
1622.58, 0.546910
1623.09, 0.546490
1623.6, 0.546140
1624.11, 0.547470
1624.62, 0.546980
1625.13, 0.546840
1625.64, 0.546210
1626.15, 0.546700
1626.66, 0.547680
1627.17, 0.547540
1627.68, 0.546700
1628.19, 0.546770
1628.7, 0.545860
1629.21, 0.546350
1629.72, 0.545930
1630.24, 0.547260
1630.75, 0.546630
1631.26, 0.545860
1631.78, 0.545510
1632.29, 0.547260
1632.8, 0.547750
1633.32, 0.547960
1633.83, 0.547610
1634.35, 0.548170
1634.86, 0.547540
1635.38, 0.547260
1635.9, 0.546210
1636.41, 0.546560
1636.93, 0.546840
1637.45, 0.547190
1637.96, 0.546350
1638.48, 0.546350
1639.0, 0.546280
1639.52, 0.546630
1640.04, 0.545720
1640.56, 0.546140
1641.08, 0.546490
1641.59, 0.546840
1642.11, 0.545860
1642.63, 0.546420
1643.16, 0.547260
1643.68, 0.547260
1644.2, 0.546560
1644.72, 0.547050
1645.24, 0.546770
1645.76, 0.547820
1646.29, 0.546840
1646.81, 0.547540
1647.33, 0.547820
1647.86, 0.547540
1648.38, 0.546490
1648.9, 0.547960
1649.43, 0.546280
1649.95, 0.546070
1650.48, 0.547260
1651.0, 0.548450
1651.53, 0.548520
1652.06, 0.548380
1652.58, 0.547610
1653.11, 0.547050
1653.64, 0.548030
1654.17, 0.548520
1654.69, 0.547750
1655.22, 0.547610
1655.75, 0.547190
1656.28, 0.547050
1656.81, 0.546560
1657.34, 0.546770
1657.87, 0.547400
1658.4, 0.548170
1658.93, 0.548030
1659.46, 0.548730
1659.99, 0.547050
1660.52, 0.546210
1661.05, 0.547540
1661.59, 0.548100
1662.12, 0.546840
1662.65, 0.547820
1663.19, 0.547680
1663.72, 0.548380
1664.26, 0.547470
1664.79, 0.547190
1665.32, 0.546560
1665.86, 0.547260
1666.39, 0.546840
1666.93, 0.547540
1667.47, 0.547890
1668.0, 0.546980
1668.54, 0.546210
1669.08, 0.547120
1669.61, 0.546350
1670.15, 0.545650
1670.69, 0.545160
1671.23, 0.545580
1671.77, 0.546210
1672.31, 0.546840
1672.85, 0.545440
1673.39, 0.545580
1673.93, 0.546000
1674.47, 0.546210
1675.01, 0.545370
1675.55, 0.545090
1676.09, 0.545720
1676.64, 0.546840
1677.18, 0.546700
1677.72, 0.546560
1678.26, 0.545650
1678.81, 0.545160
1679.35, 0.545790
1679.89, 0.545790
1680.44, 0.543690
1680.98, 0.545160
1681.53, 0.545650
1682.07, 0.545020
1682.62, 0.545090
1683.17, 0.546350
1683.71, 0.545930
1684.26, 0.543830
1684.81, 0.542780
1685.36, 0.543830
1685.9, 0.543900
1686.45, 0.543900
1687.0, 0.543060
1687.55, 0.542570
1688.1, 0.542710
1688.65, 0.543410
1689.2, 0.543200
1689.75, 0.543830
1690.3, 0.543130
1690.85, 0.543060
1691.41, 0.542290
1691.96, 0.542500
1692.51, 0.542640
1693.06, 0.543410
1693.61, 0.542290
1694.17, 0.541870
1694.72, 0.541590
1695.28, 0.541310
1695.83, 0.541380
1696.39, 0.543410
1696.94, 0.543340
1697.5, 0.542640
1698.05, 0.542430
1698.61, 0.542500
1699.17, 0.540820
1699.72, 0.541940
1700.28, 0.542710
1700.84, 0.543340
1701.4, 0.542780
1701.95, 0.543200
1702.51, 0.541870
1703.07, 0.541730
1703.63, 0.540750
1704.19, 0.541310
1704.75, 0.540750
1705.31, 0.541030
1705.88, 0.541450
1706.44, 0.541940
1707.0, 0.541940
1707.56, 0.541660
1708.12, 0.540610
1708.69, 0.541660
1709.25, 0.541870
1709.81, 0.541310
1710.38, 0.540540
1710.94, 0.541520
1711.51, 0.541590
1712.07, 0.541100
1712.64, 0.539770
1713.2, 0.540330
1713.77, 0.540540
1714.34, 0.540540
1714.9, 0.540540
1715.47, 0.541170
1716.04, 0.539770
1716.61, 0.539420
1717.18, 0.539280
1717.74, 0.539560
1718.31, 0.540400
1718.88, 0.539980
1719.45, 0.538160
1720.02, 0.538230
1720.59, 0.538090
1721.17, 0.537670
1721.74, 0.536340
1722.31, 0.536480
1722.88, 0.536620
1723.45, 0.537040
1724.03, 0.536900
1724.6, 0.536900
1725.18, 0.535360
1725.75, 0.534520
1726.33, 0.533190
1726.9, 0.532700
1727.48, 0.532630
1728.05, 0.532350
1728.63, 0.531370
1729.2, 0.531580
1729.78, 0.531090
1730.36, 0.531230
1730.94, 0.530460
1731.51, 0.529760
1732.09, 0.529900
1732.67, 0.529690
1733.25, 0.528360
1733.83, 0.528500
1734.41, 0.527590
1734.99, 0.527100
1735.57, 0.526120
1736.15, 0.525840
1736.73, 0.525350
1737.32, 0.524790
1737.9, 0.523740
1738.48, 0.522900
1739.07, 0.522480
1739.65, 0.522410
1740.23, 0.522410
1740.82, 0.522270
1741.4, 0.520590
1741.99, 0.519750
1742.57, 0.518140
1743.16, 0.517720
1743.74, 0.516670
1744.33, 0.516390
1744.92, 0.515410
1745.51, 0.514780
1746.09, 0.514290
1746.68, 0.514430
1747.27, 0.514080
1747.86, 0.513380
1748.45, 0.511700
1749.04, 0.510580
1749.63, 0.509180
1750.22, 0.509040
1750.81, 0.508200
1751.4, 0.507430
1751.99, 0.507360
1752.59, 0.507920
1753.18, 0.507780
1753.77, 0.507010
1754.37, 0.505960
1754.96, 0.505680
1755.56, 0.505680
1756.15, 0.505750
1756.74, 0.505050
1757.34, 0.505050
1757.94, 0.504000
1758.53, 0.503020
1759.13, 0.502110
1759.73, 0.502180
1760.32, 0.501410
1760.92, 0.500640
1761.52, 0.500010
1762.12, 0.500080
1762.72, 0.499800
1763.32, 0.499590
1763.92, 0.499170
1764.52, 0.499380
1765.12, 0.498680
1765.72, 0.498400
1766.32, 0.497630
1766.92, 0.496580
1767.53, 0.496300
