Database of Origin, USGS Spectral Database
Sample Description, See USGS database for additional info
Date Added,2016-08-10 02:48:34.791275

Data ID,USGS_gla02          
Sample ID, glauconite_hs313.8135
Mineral Name, glauconite
Material Class,Phyllosilicate

Wavelength
1592.67, 0.0996820
1593.16, 0.0996130
1593.65, 0.0997510
1594.14, 0.0995450
1594.63, 0.0997510
1595.12, 0.100577
1595.61, 0.100853
1596.11, 0.100577
1596.6, 0.100715
1597.09, 0.100990
1597.58, 0.101059
1598.08, 0.101059
1598.57, 0.101610
1599.06, 0.102161
1599.55, 0.101334
1600.05, 0.102229
1600.54, 0.102918
1601.04, 0.102987
1601.53, 0.102849
1602.03, 0.103124
1602.52, 0.103469
1603.02, 0.103331
1603.51, 0.103055
1604.01, 0.103262
1604.5, 0.103744
1605.0, 0.104432
1605.5, 0.104226
1606.0, 0.104019
1606.49, 0.104363
1606.99, 0.104983
1607.49, 0.105190
1607.99, 0.104845
1608.49, 0.104708
1608.99, 0.105052
1609.49, 0.105258
1609.99, 0.105121
1610.49, 0.105396
1610.99, 0.105671
1611.49, 0.105740
1611.99, 0.105671
1612.49, 0.105534
1612.99, 0.105809
1613.49, 0.106016
1614.0, 0.106291
1614.5, 0.106704
1615.0, 0.107186
1615.51, 0.107324
1616.01, 0.107117
1616.51, 0.107117
1617.02, 0.107530
1617.52, 0.107806
1618.03, 0.107874
1618.53, 0.107943
1619.04, 0.107874
1619.54, 0.107599
1620.05, 0.107737
1620.55, 0.107943
1621.06, 0.108425
1621.57, 0.108907
1622.08, 0.109251
1622.58, 0.109182
1623.09, 0.109251
1623.6, 0.109045
1624.11, 0.109045
1624.62, 0.109527
1625.13, 0.110146
1625.64, 0.110215
1626.15, 0.110628
1626.66, 0.110628
1627.17, 0.110284
1627.68, 0.110490
1628.19, 0.110766
1628.7, 0.110490
1629.21, 0.110697
1629.72, 0.111454
1630.24, 0.112005
1630.75, 0.111798
1631.26, 0.111661
1631.78, 0.111798
1632.29, 0.112280
1632.8, 0.112211
1633.32, 0.112074
1633.83, 0.112556
1634.35, 0.113175
1634.86, 0.113313
1635.38, 0.113244
1635.9, 0.113244
1636.41, 0.113451
1636.93, 0.113588
1637.45, 0.113726
1637.96, 0.113451
1638.48, 0.113657
1639.0, 0.113588
1639.52, 0.113864
1640.04, 0.113932
1640.56, 0.113795
1641.08, 0.113932
1641.59, 0.114483
1642.11, 0.114759
1642.63, 0.114896
1643.16, 0.115309
1643.68, 0.115240
1644.2, 0.115309
1644.72, 0.115722
1645.24, 0.115516
1645.76, 0.115860
1646.29, 0.116480
1646.81, 0.116342
1647.33, 0.115929
1647.86, 0.115998
1648.38, 0.116617
1648.9, 0.116893
1649.43, 0.116824
1649.95, 0.116893
1650.48, 0.117030
1651.0, 0.117375
1651.53, 0.117788
1652.06, 0.118201
1652.58, 0.117925
1653.11, 0.117581
1653.64, 0.117719
1654.17, 0.117925
1654.69, 0.118201
1655.22, 0.118614
1655.75, 0.118889
1656.28, 0.119233
1656.81, 0.119096
1657.34, 0.119096
1657.87, 0.119646
1658.4, 0.119922
1658.93, 0.119509
1659.46, 0.119440
1659.99, 0.119853
1660.52, 0.120197
1661.05, 0.120128
1661.59, 0.120197
1662.12, 0.120266
1662.65, 0.120197
1663.19, 0.120197
1663.72, 0.120472
1664.26, 0.120748
1664.79, 0.120885
1665.32, 0.121643
1665.86, 0.121987
1666.39, 0.121436
1666.93, 0.121574
1667.47, 0.121574
1668.0, 0.121643
1668.54, 0.122331
1669.08, 0.122538
1669.61, 0.122331
1670.15, 0.122331
1670.69, 0.122262
1671.23, 0.122331
1671.77, 0.122744
1672.31, 0.123019
1672.85, 0.122951
1673.39, 0.123501
1673.93, 0.123846
1674.47, 0.123846
1675.01, 0.123639
1675.55, 0.123570
1676.09, 0.123433
1676.64, 0.123570
1677.18, 0.123846
1677.72, 0.123983
1678.26, 0.123983
1678.81, 0.124259
1679.35, 0.124327
1679.89, 0.124534
1680.44, 0.124603
1680.98, 0.124741
1681.53, 0.124809
1682.07, 0.125085
1682.62, 0.125222
1683.17, 0.125360
1683.71, 0.125704
1684.26, 0.126186
1684.81, 0.126049
1685.36, 0.125911
1685.9, 0.126049
1686.45, 0.126530
1687.0, 0.126943
1687.55, 0.126875
1688.1, 0.126393
1688.65, 0.126462
1689.2, 0.126806
1689.75, 0.126668
1690.3, 0.126599
1690.85, 0.127425
1691.41, 0.127563
1691.96, 0.127563
1692.51, 0.128045
1693.06, 0.128320
1693.61, 0.127907
1694.17, 0.127770
1694.72, 0.128114
1695.28, 0.128733
1695.83, 0.128940
1696.39, 0.129078
1696.94, 0.129009
1697.5, 0.129009
1698.05, 0.129146
1698.61, 0.129353
1699.17, 0.129215
1699.72, 0.129491
1700.28, 0.129904
1700.84, 0.129835
1701.4, 0.129904
1701.95, 0.130386
1702.51, 0.130386
1703.07, 0.130523
1703.63, 0.130523
1704.19, 0.130730
1704.75, 0.130799
1705.31, 0.131005
1705.88, 0.131212
1706.44, 0.131487
1707.0, 0.131418
1707.56, 0.131143
1708.12, 0.131074
1708.69, 0.131349
1709.25, 0.131280
1709.81, 0.131349
1710.38, 0.131762
1710.94, 0.132175
1711.51, 0.132244
1712.07, 0.132313
1712.64, 0.132588
1713.2, 0.132726
1713.77, 0.132726
1714.34, 0.133001
1714.9, 0.133346
1715.47, 0.133277
1716.04, 0.133346
1716.61, 0.133690
1717.18, 0.133277
1717.74, 0.133483
1718.31, 0.133965
1718.88, 0.134241
1719.45, 0.134378
1720.02, 0.134654
1720.59, 0.134585
1721.17, 0.134585
1721.74, 0.135067
1722.31, 0.135411
1722.88, 0.135273
1723.45, 0.135411
1724.03, 0.135617
1724.6, 0.135824
1725.18, 0.135962
1725.75, 0.135893
1726.33, 0.135893
1726.9, 0.136030
1727.48, 0.135962
1728.05, 0.136168
1728.63, 0.136581
1729.2, 0.136719
1729.78, 0.136512
1730.36, 0.136650
1730.94, 0.136925
1731.51, 0.137338
1732.09, 0.137270
1732.67, 0.137338
1733.25, 0.137270
1733.83, 0.137407
1734.41, 0.137683
1734.99, 0.138096
1735.57, 0.138440
1736.15, 0.138302
1736.73, 0.138096
1737.32, 0.138715
1737.9, 0.139060
1738.48, 0.138991
1739.07, 0.139060
1739.65, 0.139335
1740.23, 0.139266
1740.82, 0.139266
1741.4, 0.139473
1741.99, 0.139679
1742.57, 0.139817
1743.16, 0.139817
1743.74, 0.140023
1744.33, 0.140230
1744.92, 0.140368
1745.51, 0.140712
1746.09, 0.140781
1746.68, 0.140781
1747.27, 0.141056
1747.86, 0.141331
1748.45, 0.141194
1749.04, 0.141538
1749.63, 0.141675
1750.22, 0.141538
1750.81, 0.141400
1751.4, 0.141882
1751.99, 0.142020
1752.59, 0.142020
1753.18, 0.142295
1753.77, 0.142502
1754.37, 0.142295
1754.96, 0.142295
1755.56, 0.142502
1756.15, 0.142708
1756.74, 0.142708
1757.34, 0.143052
1757.94, 0.143259
1758.53, 0.143259
1759.13, 0.143328
1759.73, 0.143741
1760.32, 0.143741
1760.92, 0.143741
1761.52, 0.143741
1762.12, 0.143878
1762.72, 0.144016
1763.32, 0.144085
1763.92, 0.143947
1764.52, 0.144016
1765.12, 0.144567
1765.72, 0.145049
1766.32, 0.145255
1766.92, 0.145324
1767.53, 0.145186
1768.13, 0.145049
1768.73, 0.145393
1769.34, 0.145875
1769.94, 0.146012
1770.55, 0.145737
1771.15, 0.145462
1771.76, 0.145875
1772.36, 0.146012
1772.97, 0.146219
1773.57, 0.146563
1774.18, 0.146632
1774.79, 0.146770
1775.4, 0.147114
1776.0, 0.147320
1776.61, 0.147252
1777.22, 0.147389
1777.83, 0.147734
1778.44, 0.147734
1779.05, 0.148215
1779.66, 0.148215
1780.27, 0.148215
1780.88, 0.148422
1781.5, 0.148628
1782.11, 0.148766
1782.72, 0.148766
1783.33, 0.148835
1783.95, 0.149042
1784.56, 0.148973
1785.18, 0.149110
1785.79, 0.149248
1786.41, 0.149386
1787.02, 0.149455
1787.64, 0.149523
1788.26, 0.149661
1788.87, 0.150074
1789.49, 0.150281
1790.11, 0.150418
1790.73, 0.150349
1791.35, 0.150625
1791.96, 0.150694
1792.58, 0.150694
1793.21, 0.150694
1793.83, 0.150900
1794.45, 0.151176
1795.07, 0.151382
1795.69, 0.151657
1796.31, 0.151864
1796.93, 0.151933
1797.56, 0.152208
1798.18, 0.152484
1798.8, 0.152484
1799.43, 0.152484
1800.05, 0.152552
1800.68, 0.152621
1801.3, 0.152759
1801.93, 0.152828
1802.56, 0.153103
1803.18, 0.153034
1803.81, 0.153241
1804.44, 0.153654
1805.07, 0.153860
1805.7, 0.154067
1806.33, 0.154136
1806.95, 0.154205
1807.58, 0.154136
1808.22, 0.154342
1808.85, 0.154618
1809.48, 0.154618
1810.11, 0.154480
1810.74, 0.154549
1811.38, 0.154893
1812.01, 0.155100
1812.64, 0.155306
1813.28, 0.155650
1813.91, 0.155719
1814.55, 0.155581
1815.18, 0.155719
1815.82, 0.155857
1816.45, 0.156339
1817.09, 0.156821
1817.73, 0.156752
1818.36, 0.156545
1819.0, 0.156683
1819.64, 0.157027
1820.28, 0.157234
1820.92, 0.157302
1821.56, 0.157922
1822.2, 0.157922
1822.84, 0.157509
1823.48, 0.157716
1824.12, 0.158197
1824.76, 0.158335
1825.41, 0.158542
1826.05, 0.158679
1826.69, 0.158748
1827.34, 0.158748
1827.98, 0.158955
1828.63, 0.159161
1829.27, 0.159574
1829.92, 0.159712
1830.56, 0.159781
1831.21, 0.159918
1831.86, 0.160056
1832.5, 0.160125
1833.15, 0.159987
1833.8, 0.159918
1834.45, 0.160400
1835.1, 0.160607
1835.75, 0.160469
1836.4, 0.160331
1837.05, 0.160538
1837.7, 0.161020
1838.35, 0.161158
1839.01, 0.161364
1839.66, 0.161571
1840.31, 0.161639
1840.96, 0.162190
1841.62, 0.162328
1842.27, 0.161984
1842.93, 0.162190
1843.58, 0.162397
1844.24, 0.162466
1844.9, 0.162328
1845.55, 0.162328
1846.21, 0.162603
1846.87, 0.163016
1847.53, 0.163154
1848.18, 0.163429
1848.84, 0.163567
1849.5, 0.163705
1850.16, 0.163705
1850.82, 0.163842
1851.48, 0.163911
1852.14, 0.163911
1852.81, 0.164049
1853.47, 0.164462
1854.13, 0.164669
1854.8, 0.164737
1855.46, 0.164737
1856.12, 0.164806
1856.79, 0.165013
1857.45, 0.164875
1858.12, 0.164875
1858.79, 0.165288
1859.45, 0.165495
1860.12, 0.165632
1860.79, 0.165908
1861.46, 0.166045
1862.12, 0.166252
1862.79, 0.166458
1863.46, 0.166527
1864.13, 0.166596
1864.8, 0.166734
1865.48, 0.166734
1866.15, 0.166803
1866.82, 0.166940
1867.49, 0.167216
1868.16, 0.167147
1868.84, 0.167353
1869.51, 0.167835
1870.19, 0.167973
1870.86, 0.167973
1871.54, 0.168179
1872.21, 0.168317
1872.89, 0.168317
1873.56, 0.168455
1874.24, 0.168524
1874.92, 0.168868
1875.6, 0.169006
1876.28, 0.168868
1876.96, 0.168868
1877.64, 0.169006
1878.32, 0.169487
1879.0, 0.169625
1879.68, 0.169625
1880.36, 0.169763
1881.04, 0.169900
1881.73, 0.169832
1882.41, 0.169900
1883.09, 0.170107
1883.78, 0.170520
1884.46, 0.170451
1885.15, 0.170520
1885.83, 0.170520
1886.52, 0.170727
1887.21, 0.170795
1887.89, 0.171071
1888.58, 0.171277
1889.27, 0.171553
1889.96, 0.171621
1890.65, 0.171553
1891.34, 0.171484
1892.03, 0.171621
1892.72, 0.171621
1893.41, 0.171690
1894.1, 0.171828
1894.79, 0.171897
1895.49, 0.171966
1896.18, 0.172241
1896.87, 0.172379
1897.57, 0.172310
1898.26, 0.172241
1898.96, 0.172448
1899.65, 0.172654
1900.35, 0.172792
1901.05, 0.172998
1901.74, 0.173274
1902.44, 0.173342
1903.14, 0.173067
1903.84, 0.173136
1904.54, 0.173549
1905.24, 0.173480
1905.94, 0.173549
1906.64, 0.173756
1907.34, 0.173756
1908.04, 0.173756
1908.75, 0.173893
1909.45, 0.173893
1910.15, 0.174100
1910.86, 0.174375
1911.56, 0.174788
1912.27, 0.174650
1912.97, 0.174650
1913.68, 0.174857
1914.39, 0.175132
1915.09, 0.175270
1915.8, 0.175408
1916.51, 0.175614
1917.22, 0.175752
1917.93, 0.175821
1918.64, 0.175958
1919.35, 0.176165
1920.06, 0.176440
1920.77, 0.176716
1921.48, 0.176785
1922.19, 0.176853
1922.91, 0.177060
1923.62, 0.177129
1924.33, 0.177266
1925.05, 0.177611
1925.76, 0.178093
1926.48, 0.178437
1927.19, 0.178506
1927.91, 0.178643
1928.63, 0.178988
1929.35, 0.179056
1930.07, 0.179056
1930.78, 0.179194
1931.5, 0.179538
1932.22, 0.179538
1932.94, 0.179469
1933.66, 0.179745
1934.39, 0.180089
1935.11, 0.180502
1935.83, 0.180640
1936.55, 0.180640
1937.28, 0.180571
1938.0, 0.180502
1938.73, 0.180846
1939.45, 0.181259
1940.18, 0.181603
1940.9, 0.181810
1941.63, 0.182085
1942.36, 0.182154
1943.09, 0.182292
1943.81, 0.182430
1944.54, 0.182636
1945.27, 0.182636
1946.0, 0.182636
1946.73, 0.182843
1947.47, 0.183187
1948.2, 0.183256
1948.93, 0.183462
1949.66, 0.183806
1950.4, 0.184013
1951.13, 0.184013
1951.86, 0.184013
1952.6, 0.184219
1953.34, 0.184564
1954.07, 0.184701
1954.81, 0.184770
1955.55, 0.184977
1956.29, 0.185114
1957.02, 0.185183
1957.76, 0.185459
1958.5, 0.185803
1959.24, 0.185872
1959.98, 0.185872
1960.72, 0.186009
1961.47, 0.186216
1962.21, 0.186491
1962.95, 0.186422
1963.7, 0.186491
1964.44, 0.186973
1965.18, 0.187248
1965.93, 0.187455
1966.67, 0.187799
1967.42, 0.187868
1968.17, 0.188075
1968.92, 0.188075
1969.66, 0.188143
1970.41, 0.188488
1971.16, 0.188763
1971.91, 0.188969
1972.66, 0.189038
1973.41, 0.189176
1974.16, 0.189451
1974.92, 0.189658
1975.67, 0.189933
1976.42, 0.189864
1977.18, 0.190071
1977.93, 0.190277
1978.69, 0.190346
1979.44, 0.190622
1980.2, 0.191035
1980.95, 0.191241
1981.71, 0.191517
1982.47, 0.191585
1983.23, 0.191861
1983.99, 0.191999
1984.74, 0.192136
1985.51, 0.192343
1986.27, 0.192412
1987.03, 0.192549
1987.79, 0.192756
1988.55, 0.193100
1989.32, 0.193582
1990.08, 0.193720
1990.84, 0.193582
1991.61, 0.193651
1992.37, 0.194133
1993.14, 0.194408
1993.9, 0.194408
1994.67, 0.194683
1995.44, 0.195096
1996.21, 0.195234
1996.98, 0.195234
1997.75, 0.195303
1998.52, 0.195509
1999.29, 0.195854
2000.06, 0.196336
2000.83, 0.196336
2001.6, 0.196267
2002.38, 0.196542
2003.15, 0.196955
2003.93, 0.197299
2004.7, 0.197437
2005.48, 0.197368
2006.25, 0.197437
2007.03, 0.197781
2007.81, 0.198057
2008.58, 0.198263
2009.36, 0.198470
2010.14, 0.198814
2010.92, 0.199227
2011.7, 0.199227
2012.48, 0.199433
2013.26, 0.199709
2014.05, 0.199984
2014.83, 0.200053
2015.61, 0.200397
2016.4, 0.200604
2017.18, 0.200741
2017.97, 0.201017
2018.75, 0.201292
2019.54, 0.201292
2020.32, 0.201361
2021.11, 0.201567
2021.9, 0.201843
2022.69, 0.202049
2023.48, 0.202187
2024.27, 0.202256
2025.06, 0.202394
2025.85, 0.202669
2026.64, 0.202944
2027.44, 0.203013
2028.23, 0.203220
2029.02, 0.203357
2029.82, 0.203702
2030.61, 0.203839
2031.41, 0.204115
2032.2, 0.204321
2033.0, 0.204528
2033.8, 0.204734
2034.6, 0.204941
2035.4, 0.204941
2036.2, 0.205147
2037.0, 0.205423
2037.8, 0.205698
2038.6, 0.205904
2039.4, 0.206249
2040.2, 0.206524
2041.01, 0.206731
2041.81, 0.206868
2042.61, 0.207212
2043.42, 0.207281
2044.22, 0.207075
2045.03, 0.207281
2045.84, 0.207625
2046.65, 0.207763
2047.46, 0.207970
2048.26, 0.208245
2049.07, 0.208314
2049.88, 0.208314
2050.69, 0.208520
2051.51, 0.208727
2052.32, 0.209140
2053.13, 0.209347
2053.94, 0.209622
2054.76, 0.209760
2055.57, 0.209897
2056.39, 0.209966
2057.2, 0.210104
2058.02, 0.210173
2058.84, 0.210448
2059.66, 0.210861
2060.48, 0.211205
2061.29, 0.211205
2062.11, 0.211549
2062.94, 0.211894
2063.76, 0.211963
2064.58, 0.212031
2065.4, 0.212169
2066.22, 0.212100
2067.05, 0.212307
2067.87, 0.212720
2068.7, 0.213064
2069.52, 0.213271
2070.35, 0.213477
2071.18, 0.213408
2072.0, 0.213408
2072.83, 0.213546
2073.66, 0.213890
2074.49, 0.214303
2075.32, 0.214578
2076.15, 0.214854
2076.98, 0.214923
2077.82, 0.215060
2078.65, 0.215129
2079.48, 0.215267
2080.32, 0.215611
2081.15, 0.215680
2081.99, 0.215818
2082.83, 0.216093
2083.66, 0.216437
2084.5, 0.216575
2085.34, 0.216919
2086.18, 0.217057
2087.02, 0.216988
2087.86, 0.216988
2088.7, 0.217332
2089.54, 0.217608
2090.39, 0.217883
2091.23, 0.218158
2092.07, 0.218227
2092.92, 0.218365
2093.76, 0.218571
2094.61, 0.218571
2095.45, 0.218709
2096.3, 0.218984
2097.15, 0.219397
2098.0, 0.219673
2098.85, 0.219948
2099.7, 0.220086
2100.55, 0.220361
2101.4, 0.220637
2102.25, 0.220705
2103.1, 0.220843
2103.96, 0.221187
2104.81, 0.221325
2105.67, 0.221600
2106.52, 0.221807
2107.38, 0.222013
2108.24, 0.222220
2109.09, 0.222495
2109.95, 0.222633
2110.81, 0.223046
2111.67, 0.223390
2112.53, 0.223459
2113.39, 0.223459
2114.25, 0.223390
2115.12, 0.223528
2115.98, 0.223872
2116.84, 0.224216
2117.71, 0.224492
2118.58, 0.224560
2119.44, 0.224629
2120.31, 0.224560
2121.18, 0.224698
2122.04, 0.225042
2122.91, 0.225387
2123.78, 0.225455
2124.65, 0.225593
2125.52, 0.226006
2126.4, 0.226350
2127.27, 0.226281
2128.14, 0.226419
2129.02, 0.226488
2129.89, 0.226626
2130.77, 0.226763
2131.64, 0.226832
2132.52, 0.227039
2133.4, 0.227314
2134.27, 0.227521
2135.15, 0.227796
2136.03, 0.228071
2136.91, 0.228278
2137.79, 0.228347
2138.68, 0.228347
2139.56, 0.228553
2140.44, 0.228760
2141.33, 0.228622
2142.21, 0.228829
2143.1, 0.229173
2143.99, 0.229104
2144.87, 0.229104
2145.76, 0.229379
2146.65, 0.229379
2147.54, 0.229517
2148.43, 0.229930
2149.32, 0.230205
2150.21, 0.230274
2151.1, 0.230343
2151.99, 0.230412
2152.89, 0.230619
2153.78, 0.230894
2154.68, 0.231169
2155.57, 0.231169
2156.47, 0.231032
2157.37, 0.231032
2158.27, 0.231238
2159.16, 0.231513
2160.06, 0.231651
2160.96, 0.231995
2161.86, 0.232202
2162.77, 0.232202
2163.67, 0.232340
2164.57, 0.232477
2165.48, 0.232546
2166.38, 0.232684
2167.29, 0.232821
2168.2, 0.232959
2169.1, 0.233028
2170.01, 0.233028
2170.92, 0.233303
2171.83, 0.233648
2172.74, 0.233785
2173.65, 0.233854
2174.56, 0.234061
2175.47, 0.234129
2176.39, 0.234129
2177.3, 0.234129
2178.22, 0.234336
2179.13, 0.234336
2180.05, 0.234336
2180.96, 0.234405
2181.88, 0.234542
2182.8, 0.234542
2183.72, 0.234405
2184.64, 0.234611
2185.56, 0.234818
2186.48, 0.234887
2187.41, 0.235024
2188.33, 0.235093
2189.25, 0.235162
2190.18, 0.235231
2191.1, 0.235437
2192.03, 0.235437
2192.96, 0.235575
2193.89, 0.235713
2194.82, 0.235713
2195.74, 0.235644
2196.68, 0.235782
2197.61, 0.235919
2198.54, 0.236057
2199.47, 0.236126
2200.4, 0.236263
2201.34, 0.236332
2202.28, 0.236470
2203.21, 0.236470
2204.15, 0.236470
2205.08, 0.236401
2206.02, 0.236608
2206.96, 0.236745
2207.9, 0.236745
2208.84, 0.236814
2209.78, 0.236883
2210.73, 0.236883
2211.67, 0.237090
2212.61, 0.237158
2213.56, 0.236952
2214.5, 0.237021
2215.45, 0.237021
2216.4, 0.237021
2217.35, 0.237090
2218.3, 0.237021
2219.24, 0.236677
2220.2, 0.236539
2221.15, 0.236470
2222.1, 0.236539
2223.05, 0.236470
2224.0, 0.236470
2224.96, 0.236608
2225.91, 0.236539
2226.87, 0.236332
2227.83, 0.236126
2228.79, 0.235919
2229.74, 0.235782
2230.7, 0.235919
2231.66, 0.235713
2232.63, 0.235506
2233.59, 0.235437
2234.55, 0.235093
2235.51, 0.234887
2236.48, 0.234749
2237.44, 0.234474
2238.41, 0.234267
2239.38, 0.234129
2240.34, 0.233716
2241.31, 0.233303
2242.28, 0.233097
2243.25, 0.232890
2244.22, 0.232546
2245.19, 0.232340
2246.17, 0.232271
2247.14, 0.231995
2248.12, 0.231513
2249.09, 0.231307
2250.07, 0.231238
2251.04, 0.231169
2252.02, 0.230894
2253.0, 0.230619
2253.98, 0.230481
2254.96, 0.230343
2255.94, 0.230274
2256.92, 0.230137
2257.91, 0.229999
2258.89, 0.230068
2259.88, 0.230137
2260.86, 0.230274
2261.85, 0.230343
2262.83, 0.230343
2263.82, 0.230068
2264.81, 0.229792
2265.8, 0.229517
2266.79, 0.229379
2267.78, 0.229586
2268.78, 0.229724
2269.77, 0.229586
2270.76, 0.229724
2271.76, 0.229999
2272.75, 0.230274
2273.75, 0.230619
2274.75, 0.230825
2275.75, 0.231169
2276.75, 0.231307
2277.75, 0.231307
2278.75, 0.231513
2279.75, 0.231445
2280.75, 0.230963
2281.76, 0.230481
2282.76, 0.229861
2283.77, 0.229104
2284.77, 0.228278
2285.78, 0.227108
2286.79, 0.225800
2287.8, 0.224492
2288.81, 0.223184
2289.82, 0.221807
2290.83, 0.220568
2291.84, 0.219260
2292.86, 0.217814
2293.87, 0.216437
2294.89, 0.215129
2295.91, 0.213684
2296.92, 0.212376
2297.94, 0.211136
2298.96, 0.209966
2299.98, 0.209002
2301.0, 0.207901
2302.02, 0.206868
2303.04, 0.206042
2304.07, 0.205285
2305.09, 0.204596
2306.12, 0.203977
2307.15, 0.203151
2308.17, 0.202462
2309.2, 0.202049
2310.23, 0.201843
2311.26, 0.201705
2312.29, 0.201705
2313.32, 0.201705
2314.35, 0.202256
2315.39, 0.202875
2316.42, 0.203564
2317.46, 0.204390
2318.5, 0.205216
2319.53, 0.206180
2320.57, 0.207212
2321.61, 0.208589
2322.65, 0.210035
2323.69, 0.211274
2324.73, 0.212582
2325.78, 0.213752
2326.82, 0.214785
2327.86, 0.215955
2328.91, 0.217057
2329.96, 0.218021
2331.01, 0.218915
2332.05, 0.219673
2333.1, 0.220155
2334.15, 0.220705
2335.21, 0.221118
2336.26, 0.221394
2337.31, 0.221600
2338.36, 0.221531
2339.42, 0.221331
2340.48, 0.221331
2341.53, 0.221198
2342.59, 0.220598
