Database of Origin, USGS Spectral Database
Sample Description, See USGS database for additional info
Date Added,2016-08-10 05:16:43.576313

Data ID,USGS_nic02          
Sample ID, nickeline_hs264.15893
Mineral Name, nickeline
Material Class,Arsenate

Wavelength
1582.95, 0.0933930
1583.43, 0.0936360
1583.92, 0.0936360
1584.4, 0.0933320
1584.88, 0.0934540
1585.37, 0.0935140
1585.85, 0.0935140
1586.34, 0.0935140
1586.82, 0.0940010
1587.31, 0.0946700
1587.8, 0.0946100
1588.28, 0.0944880
1588.77, 0.0944270
1589.26, 0.0941840
1589.74, 0.0942440
1590.23, 0.0944270
1590.72, 0.0946700
1591.21, 0.0947310
1591.7, 0.0947920
1592.19, 0.0948530
1592.67, 0.0949750
1593.16, 0.0951570
1593.65, 0.0952180
1594.14, 0.0947920
1594.63, 0.0949140
1595.12, 0.0950960
1595.61, 0.0951570
1596.11, 0.0952790
1596.6, 0.0956440
1597.09, 0.0959480
1597.58, 0.0959480
1598.08, 0.0956440
1598.57, 0.0960090
1599.06, 0.0961910
1599.55, 0.0958260
1600.05, 0.0957050
1600.54, 0.0962520
1601.04, 0.0962520
1601.53, 0.0960090
1602.03, 0.0961310
1602.52, 0.0963130
1603.02, 0.0964960
1603.51, 0.0966780
1604.01, 0.0969220
1604.5, 0.0966170
1605.0, 0.0968610
1605.5, 0.0971650
1606.0, 0.0968610
1606.49, 0.0967390
1606.99, 0.0966780
1607.49, 0.0964960
1607.99, 0.0968610
1608.49, 0.0970430
1608.99, 0.0969820
1609.49, 0.0972260
1609.99, 0.0973470
1610.49, 0.0976520
1610.99, 0.0975300
1611.49, 0.0972260
1611.99, 0.0972870
1612.49, 0.0976520
1612.99, 0.0975910
1613.49, 0.0976520
1614.0, 0.0978340
1614.5, 0.0980780
1615.0, 0.0978340
1615.51, 0.0980780
1616.01, 0.0982600
1616.51, 0.0979560
1617.02, 0.0974080
1617.52, 0.0977130
1618.03, 0.0986860
1618.53, 0.0987470
1619.04, 0.0985030
1619.54, 0.0983820
1620.05, 0.0983210
1620.55, 0.0986860
1621.06, 0.0985030
1621.57, 0.0985640
1622.08, 0.0989290
1622.58, 0.0992340
1623.09, 0.0990510
1623.6, 0.0988680
1624.11, 0.0987470
1624.62, 0.0991730
1625.13, 0.0991730
1625.64, 0.0991730
1626.15, 0.0991730
1626.66, 0.0995380
1627.17, 0.0997200
1627.68, 0.0997810
1628.19, 0.0996590
1628.7, 0.0994160
1629.21, 0.0994770
1629.72, 0.0998420
1630.24, 0.0999030
1630.75, 0.0998420
1631.26, 0.0995990
1631.78, 0.0997810
1632.29, 0.0998420
1632.8, 0.0997200
1633.32, 0.0999030
1633.83, 0.100025
1634.35, 0.100085
1634.86, 0.100329
1635.38, 0.100207
1635.9, 0.100085
1636.41, 0.100146
1636.93, 0.100025
1637.45, 0.0998420
1637.96, 0.100268
1638.48, 0.100572
1639.0, 0.100329
1639.52, 0.100085
1640.04, 0.100329
1640.56, 0.100511
1641.08, 0.100755
1641.59, 0.101059
1642.11, 0.100572
1642.63, 0.100390
1643.16, 0.100755
1643.68, 0.100876
1644.2, 0.100694
1644.72, 0.100511
1645.24, 0.100633
1645.76, 0.100572
1646.29, 0.100329
1646.81, 0.100450
1647.33, 0.100937
1647.86, 0.100876
1648.38, 0.100572
1648.9, 0.100815
1649.43, 0.101363
1649.95, 0.101424
1650.48, 0.101302
1651.0, 0.101181
1651.53, 0.101181
1652.06, 0.101120
1652.58, 0.100937
1653.11, 0.101059
1653.64, 0.101424
1654.17, 0.101485
1654.69, 0.101911
1655.22, 0.101606
1655.75, 0.100876
1656.28, 0.100937
1656.81, 0.101363
1657.34, 0.101667
1657.87, 0.101546
1658.4, 0.101302
1658.93, 0.101485
1659.46, 0.101546
1659.99, 0.101546
1660.52, 0.101667
1661.05, 0.101667
1661.59, 0.101667
1662.12, 0.101606
1662.65, 0.101606
1663.19, 0.101911
1663.72, 0.102154
1664.26, 0.102276
1664.79, 0.102093
1665.32, 0.102032
1665.86, 0.101971
1666.39, 0.102215
1666.93, 0.102458
1667.47, 0.102519
1668.0, 0.102458
1668.54, 0.102762
1669.08, 0.102702
1669.61, 0.102519
1670.15, 0.102580
1670.69, 0.102641
1671.23, 0.102702
1671.77, 0.102702
1672.31, 0.102641
1672.85, 0.102641
1673.39, 0.102519
1673.93, 0.102458
1674.47, 0.102580
1675.01, 0.102641
1675.55, 0.102641
1676.09, 0.102884
1676.64, 0.102823
1677.18, 0.102884
1677.72, 0.102884
1678.26, 0.102945
1678.81, 0.102945
1679.35, 0.103310
1679.89, 0.103492
1680.44, 0.103310
1680.98, 0.103067
1681.53, 0.103371
1682.07, 0.103432
1682.62, 0.103371
1683.17, 0.103432
1683.71, 0.103127
1684.26, 0.102884
1684.81, 0.103188
1685.36, 0.103310
1685.9, 0.103614
1686.45, 0.103553
1687.0, 0.103432
1687.55, 0.103371
1688.1, 0.103492
1688.65, 0.103736
1689.2, 0.104040
1689.75, 0.103918
1690.3, 0.103553
1690.85, 0.103432
1691.41, 0.103553
1691.96, 0.103736
1692.51, 0.103736
1693.06, 0.103614
1693.61, 0.103675
1694.17, 0.103614
1694.72, 0.103432
1695.28, 0.103492
1695.83, 0.103918
1696.39, 0.104162
1696.94, 0.104162
1697.5, 0.104344
1698.05, 0.104405
1698.61, 0.104223
1699.17, 0.104101
1699.72, 0.103979
1700.28, 0.104466
1700.84, 0.104953
1701.4, 0.104831
1701.95, 0.104283
1702.51, 0.104344
1703.07, 0.104344
1703.63, 0.104405
1704.19, 0.104283
1704.75, 0.104344
1705.31, 0.104466
1705.88, 0.104405
1706.44, 0.104466
1707.0, 0.104831
1707.56, 0.105196
1708.12, 0.104892
1708.69, 0.104283
1709.25, 0.104466
1709.81, 0.104648
1710.38, 0.104648
1710.94, 0.104648
1711.51, 0.104648
1712.07, 0.104831
1712.64, 0.104831
1713.2, 0.104648
1713.77, 0.104953
1714.34, 0.105196
1714.9, 0.105196
1715.47, 0.104892
1716.04, 0.104953
1716.61, 0.105196
1717.18, 0.105318
1717.74, 0.105196
1718.31, 0.105074
1718.88, 0.105135
1719.45, 0.105257
1720.02, 0.105500
1720.59, 0.105987
1721.17, 0.105744
1721.74, 0.105318
1722.31, 0.105014
1722.88, 0.105196
1723.45, 0.105500
1724.03, 0.105622
1724.6, 0.105500
1725.18, 0.105500
1725.75, 0.105561
1726.33, 0.105622
1726.9, 0.105744
1727.48, 0.105805
1728.05, 0.105622
1728.63, 0.105744
1729.2, 0.105683
1729.78, 0.105500
1730.36, 0.105439
1730.94, 0.105500
1731.51, 0.105439
1732.09, 0.105500
1732.67, 0.105805
1733.25, 0.105987
1733.83, 0.106109
1734.41, 0.106109
1734.99, 0.106048
1735.57, 0.106170
1736.15, 0.106352
1736.73, 0.106352
1737.32, 0.106230
1737.9, 0.106109
1738.48, 0.105926
1739.07, 0.106170
1739.65, 0.106048
1740.23, 0.106109
1740.82, 0.106170
1741.4, 0.106291
1741.99, 0.106413
1742.57, 0.106230
1743.16, 0.106352
1743.74, 0.106474
1744.33, 0.106352
1744.92, 0.106413
1745.51, 0.106413
1746.09, 0.106413
1746.68, 0.106595
1747.27, 0.107021
1747.86, 0.106778
1748.45, 0.106595
1749.04, 0.106535
1749.63, 0.106656
1750.22, 0.106717
1750.81, 0.106778
1751.4, 0.106595
1751.99, 0.106900
1752.59, 0.107021
1753.18, 0.107021
1753.77, 0.106900
1754.37, 0.106839
1754.96, 0.107021
1755.56, 0.107143
1756.15, 0.107082
1756.74, 0.107143
1757.34, 0.107021
1757.94, 0.106778
1758.53, 0.106778
1759.13, 0.106960
1759.73, 0.106900
1760.32, 0.107143
1760.92, 0.107326
1761.52, 0.107021
1762.12, 0.106900
1762.72, 0.107082
1763.32, 0.107265
1763.92, 0.107630
1764.52, 0.107630
1765.12, 0.107508
1765.72, 0.107326
1766.32, 0.107508
1766.92, 0.107751
1767.53, 0.107873
1768.13, 0.107751
1768.73, 0.107691
1769.34, 0.107569
1769.94, 0.107751
1770.55, 0.107873
1771.15, 0.107751
1771.76, 0.107630
1772.36, 0.107630
1772.97, 0.107691
1773.57, 0.107751
1774.18, 0.107934
1774.79, 0.107873
1775.4, 0.107751
1776.0, 0.107934
1776.61, 0.107995
1777.22, 0.107934
1777.83, 0.107873
1778.44, 0.108117
1779.05, 0.107995
1779.66, 0.107812
1780.27, 0.107812
1780.88, 0.108177
1781.5, 0.108177
1782.11, 0.108117
1782.72, 0.108117
1783.33, 0.108238
1783.95, 0.108117
1784.56, 0.107934
1785.18, 0.108056
1785.79, 0.108482
1786.41, 0.108542
1787.02, 0.108421
1787.64, 0.108238
1788.26, 0.108238
1788.87, 0.108482
1789.49, 0.108664
1790.11, 0.108603
1790.73, 0.108603
1791.35, 0.108360
1791.96, 0.108299
1792.58, 0.108117
1793.21, 0.108238
1793.83, 0.108299
1794.45, 0.108299
1795.07, 0.108542
1795.69, 0.108786
1796.31, 0.108847
1796.93, 0.108847
1797.56, 0.108664
1798.18, 0.108482
1798.8, 0.108421
1799.43, 0.108603
1800.05, 0.108664
1800.68, 0.108786
1801.3, 0.108786
1801.93, 0.108725
1802.56, 0.108664
1803.18, 0.108603
1803.81, 0.108664
1804.44, 0.108603
1805.07, 0.108542
1805.7, 0.108786
1806.33, 0.108968
1806.95, 0.108907
1807.58, 0.108786
1808.22, 0.108907
1808.85, 0.108968
1809.48, 0.108786
1810.11, 0.108482
1810.74, 0.108725
1811.38, 0.108907
1812.01, 0.109333
1812.64, 0.109638
1813.28, 0.109577
1813.91, 0.109333
1814.55, 0.109090
1815.18, 0.108847
1815.82, 0.108847
1816.45, 0.109151
1817.09, 0.109455
1817.73, 0.109333
1818.36, 0.109090
1819.0, 0.109090
1819.64, 0.109333
1820.28, 0.109577
1820.92, 0.109455
1821.56, 0.109394
1822.2, 0.109516
1822.84, 0.109516
1823.48, 0.109698
1824.12, 0.109820
1824.76, 0.109881
1825.41, 0.109455
1826.05, 0.109333
1826.69, 0.109516
1827.34, 0.109577
1827.98, 0.109759
1828.63, 0.109820
1829.27, 0.109881
1829.92, 0.109881
1830.56, 0.109759
1831.21, 0.109820
1831.86, 0.109942
1832.5, 0.110003
1833.15, 0.109942
1833.8, 0.110063
1834.45, 0.109820
1835.1, 0.109942
1835.75, 0.109942
1836.4, 0.109820
1837.05, 0.109820
1837.7, 0.109881
1838.35, 0.110124
1839.01, 0.109881
1839.66, 0.109881
1840.31, 0.110307
1840.96, 0.110124
1841.62, 0.109881
1842.27, 0.110063
1842.93, 0.110368
1843.58, 0.110246
1844.24, 0.110246
1844.9, 0.110550
1845.55, 0.110550
1846.21, 0.110185
1846.87, 0.109942
1847.53, 0.110003
1848.18, 0.110185
1848.84, 0.110611
1849.5, 0.110672
1850.16, 0.110489
1850.82, 0.110489
1851.48, 0.110489
1852.14, 0.110429
1852.81, 0.110489
1853.47, 0.110429
1854.13, 0.110611
1854.8, 0.110733
1855.46, 0.110489
1856.12, 0.110429
1856.79, 0.110733
1857.45, 0.110976
1858.12, 0.110915
1858.79, 0.110794
1859.45, 0.110489
1860.12, 0.110611
1860.79, 0.110794
1861.46, 0.111037
1862.12, 0.110976
1862.79, 0.110794
1863.46, 0.110672
1864.13, 0.110854
1864.8, 0.111037
1865.48, 0.111098
1866.15, 0.110976
1866.82, 0.110854
1867.49, 0.110733
1868.16, 0.110976
1868.84, 0.110854
1869.51, 0.110733
1870.19, 0.110611
1870.86, 0.110672
1871.54, 0.110854
1872.21, 0.110915
1872.89, 0.110794
1873.56, 0.111098
1874.24, 0.111037
1874.92, 0.110915
1875.6, 0.111037
1876.28, 0.110976
1876.96, 0.110976
1877.64, 0.111280
1878.32, 0.111280
1879.0, 0.111341
1879.68, 0.111280
1880.36, 0.111341
1881.04, 0.111280
1881.73, 0.111402
1882.41, 0.111341
1883.09, 0.111037
1883.78, 0.111037
1884.46, 0.111402
1885.15, 0.111524
1885.83, 0.111524
1886.52, 0.111463
1887.21, 0.111584
1887.89, 0.111524
1888.58, 0.111524
1889.27, 0.111098
1889.96, 0.110976
1890.65, 0.111280
1891.34, 0.111402
1892.03, 0.111463
1892.72, 0.111584
1893.41, 0.111706
1894.1, 0.111645
1894.79, 0.111524
1895.49, 0.111463
1896.18, 0.111402
1896.87, 0.111341
1897.57, 0.111463
1898.26, 0.111463
1898.96, 0.111402
1899.65, 0.111706
1900.35, 0.112010
1901.05, 0.112010
1901.74, 0.111828
1902.44, 0.111645
1903.14, 0.111706
1903.84, 0.111950
1904.54, 0.111889
1905.24, 0.111828
1905.94, 0.111889
1906.64, 0.111950
1907.34, 0.112010
1908.04, 0.111889
1908.75, 0.111828
1909.45, 0.112071
1910.15, 0.112132
1910.86, 0.112010
1911.56, 0.112010
1912.27, 0.112010
1912.97, 0.112010
1913.68, 0.112315
1914.39, 0.112254
1915.09, 0.111889
1915.8, 0.111828
1916.51, 0.111889
1917.22, 0.112010
1917.93, 0.112254
1918.64, 0.112132
1919.35, 0.111828
1920.06, 0.111645
1920.77, 0.111889
1921.48, 0.112071
1922.19, 0.112193
1922.91, 0.112375
1923.62, 0.112436
1924.33, 0.112436
1925.05, 0.112436
1925.76, 0.112375
1926.48, 0.112315
1927.19, 0.112254
1927.91, 0.112315
1928.63, 0.112436
1929.35, 0.112558
1930.07, 0.112497
1930.78, 0.112436
1931.5, 0.112436
1932.22, 0.112497
1932.94, 0.112497
1933.66, 0.112619
1934.39, 0.112436
1935.11, 0.112436
1935.83, 0.112436
1936.55, 0.112375
1937.28, 0.112436
1938.0, 0.112680
1938.73, 0.112680
1939.45, 0.112741
1940.18, 0.112741
1940.9, 0.112801
1941.63, 0.112741
1942.36, 0.112741
1943.09, 0.112619
1943.81, 0.112862
1944.54, 0.112923
1945.27, 0.112862
1946.0, 0.112680
1946.73, 0.112558
1947.47, 0.112680
1948.2, 0.112923
1948.93, 0.112862
1949.66, 0.112862
1950.4, 0.112923
1951.13, 0.112862
1951.86, 0.112619
1952.6, 0.112741
1953.34, 0.112801
1954.07, 0.112862
1954.81, 0.112923
1955.55, 0.113045
1956.29, 0.113106
1957.02, 0.113045
1957.76, 0.112923
1958.5, 0.113106
1959.24, 0.113045
1959.98, 0.112984
1960.72, 0.113166
1961.47, 0.113288
1962.21, 0.112984
1962.95, 0.112923
1963.7, 0.112984
1964.44, 0.112923
1965.18, 0.112923
1965.93, 0.112801
1966.67, 0.112801
1967.42, 0.113045
1968.17, 0.113227
1968.92, 0.113106
1969.66, 0.112984
1970.41, 0.113166
1971.16, 0.113288
1971.91, 0.113349
1972.66, 0.113471
1973.41, 0.113349
1974.16, 0.113288
1974.92, 0.113288
1975.67, 0.113227
1976.42, 0.113166
1977.18, 0.113166
1977.93, 0.113106
1978.69, 0.113227
1979.44, 0.113227
1980.2, 0.113166
1980.95, 0.113288
1981.71, 0.113288
1982.47, 0.113227
1983.23, 0.113349
1983.99, 0.113410
1984.74, 0.113227
1985.51, 0.113471
1986.27, 0.113592
1987.03, 0.113410
1987.79, 0.113410
1988.55, 0.113592
1989.32, 0.113531
1990.08, 0.113653
1990.84, 0.113471
1991.61, 0.113592
1992.37, 0.113775
1993.14, 0.113836
1993.9, 0.113653
1994.67, 0.113410
1995.44, 0.113592
1996.21, 0.114018
1996.98, 0.114018
1997.75, 0.114018
1998.52, 0.113897
1999.29, 0.113714
2000.06, 0.113897
2000.83, 0.114140
2001.6, 0.114079
2002.38, 0.114018
2003.15, 0.113897
2003.93, 0.113897
2004.7, 0.113836
2005.48, 0.113897
2006.25, 0.113897
2007.03, 0.113897
2007.81, 0.113897
2008.58, 0.114018
2009.36, 0.114079
2010.14, 0.114079
2010.92, 0.113957
2011.7, 0.114018
2012.48, 0.114079
2013.26, 0.114140
2014.05, 0.114201
2014.83, 0.114262
2015.61, 0.114322
2016.4, 0.114322
2017.18, 0.114262
2017.97, 0.114201
2018.75, 0.114079
2019.54, 0.114140
2020.32, 0.114201
2021.11, 0.114140
2021.9, 0.114201
2022.69, 0.114383
2023.48, 0.114201
2024.27, 0.114079
2025.06, 0.114140
2025.85, 0.114262
2026.64, 0.114201
2027.44, 0.114444
2028.23, 0.114566
2029.02, 0.114322
2029.82, 0.114383
2030.61, 0.114505
2031.41, 0.114322
2032.2, 0.114444
2033.0, 0.114505
2033.8, 0.114383
2034.6, 0.114322
2035.4, 0.114383
2036.2, 0.114322
2037.0, 0.114383
2037.8, 0.114322
2038.6, 0.114444
2039.4, 0.114383
2040.2, 0.114444
2041.01, 0.114566
2041.81, 0.114627
2042.61, 0.114322
2043.42, 0.114322
2044.22, 0.114627
2045.03, 0.114566
2045.84, 0.114627
2046.65, 0.114627
2047.46, 0.114627
2048.26, 0.114687
2049.07, 0.114748
2049.88, 0.114566
2050.69, 0.114383
2051.51, 0.114383
2052.32, 0.114383
2053.13, 0.114444
2053.94, 0.114444
2054.76, 0.114444
2055.57, 0.114627
2056.39, 0.114809
2057.2, 0.114687
2058.02, 0.114566
2058.84, 0.114566
2059.66, 0.114627
2060.48, 0.114687
2061.29, 0.114627
2062.11, 0.114505
2062.94, 0.114748
2063.76, 0.114870
2064.58, 0.114870
2065.4, 0.114931
2066.22, 0.114992
2067.05, 0.114809
2067.87, 0.114627
2068.7, 0.114444
2069.52, 0.114505
2070.35, 0.114566
2071.18, 0.114687
2072.0, 0.114748
2072.83, 0.114748
2073.66, 0.114748
2074.49, 0.114748
2075.32, 0.114687
2076.15, 0.114870
2076.98, 0.114809
2077.82, 0.114748
2078.65, 0.114748
2079.48, 0.114748
2080.32, 0.114809
2081.15, 0.114748
2081.99, 0.114566
2082.83, 0.114627
2083.66, 0.114809
2084.5, 0.114870
2085.34, 0.114809
2086.18, 0.114809
2087.02, 0.114870
2087.86, 0.114931
2088.7, 0.114931
2089.54, 0.114870
2090.39, 0.114687
2091.23, 0.114809
2092.07, 0.114870
2092.92, 0.115113
2093.76, 0.115113
2094.61, 0.115113
2095.45, 0.115235
2096.3, 0.115235
2097.15, 0.114992
2098.0, 0.114931
2098.85, 0.114870
2099.7, 0.114992
2100.55, 0.115113
2101.4, 0.115113
2102.25, 0.114992
2103.1, 0.114931
2103.96, 0.114992
2104.81, 0.114931
2105.67, 0.114992
2106.52, 0.115174
2107.38, 0.115113
2108.24, 0.114870
2109.09, 0.114931
2109.95, 0.115053
2110.81, 0.115053
2111.67, 0.115053
2112.53, 0.114931
2113.39, 0.114992
2114.25, 0.114931
2115.12, 0.114992
2115.98, 0.115296
2116.84, 0.115478
2117.71, 0.115296
2118.58, 0.115174
2119.44, 0.115174
2120.31, 0.115296
2121.18, 0.115357
2122.04, 0.115357
2122.91, 0.115166
2123.78, 0.115039
2124.65, 0.115102
2125.52, 0.115166
2126.4, 0.115102
2127.27, 0.115102
2128.14, 0.114975
2129.02, 0.114975
2129.89, 0.114658
2130.77, 0.114785
2131.64, 0.115102
2132.52, 0.114975
2133.4, 0.114721
2134.27, 0.114721
2135.15, 0.114658
2136.03, 0.115039
2136.91, 0.115102
2137.79, 0.114912
2138.68, 0.114975
2139.56, 0.115166
2140.44, 0.115102
2141.33, 0.115166
2142.21, 0.115484
2143.1, 0.115675
2143.99, 0.115293
2144.87, 0.115293
2145.76, 0.115357
2146.65, 0.115230
2147.54, 0.115293
2148.43, 0.115230
2149.32, 0.115039
2150.21, 0.115102
2151.1, 0.115484
2151.99, 0.115357
2152.89, 0.115357
2153.78, 0.115484
2154.68, 0.115166
2155.57, 0.115166
2156.47, 0.115420
2157.37, 0.115611
2158.27, 0.115166
2159.16, 0.115420
2160.06, 0.115738
2160.96, 0.115611
2161.86, 0.115611
2162.77, 0.115611
2163.67, 0.115675
2164.57, 0.115738
2165.48, 0.115802
2166.38, 0.115802
2167.29, 0.115992
2168.2, 0.116437
2169.1, 0.116119
2170.01, 0.115929
2170.92, 0.115865
2171.83, 0.115611
2172.74, 0.115865
2173.65, 0.116247
2174.56, 0.116628
2175.47, 0.116755
2176.39, 0.116628
2177.3, 0.116691
2178.22, 0.116628
2179.13, 0.116437
2180.05, 0.116374
2180.96, 0.116437
2181.88, 0.116183
2182.8, 0.116247
2183.72, 0.116437
2184.64, 0.116755
2185.56, 0.116819
2186.48, 0.116882
2187.41, 0.116882
2188.33, 0.116819
2189.25, 0.116501
2190.18, 0.116247
2191.1, 0.116310
2192.03, 0.116437
2192.96, 0.116628
2193.89, 0.116691
2194.82, 0.116755
2195.74, 0.116564
2196.68, 0.116628
2197.61, 0.116882
2198.54, 0.116755
2199.47, 0.116946
2200.4, 0.116882
2201.34, 0.116819
2202.28, 0.116882
2203.21, 0.116819
2204.15, 0.116691
2205.08, 0.116819
2206.02, 0.117136
2206.96, 0.117391
2207.9, 0.117518
2208.84, 0.117200
2209.78, 0.117009
2210.73, 0.117073
2211.67, 0.117327
2212.61, 0.117391
2213.56, 0.117200
2214.5, 0.117136
2215.45, 0.117073
2216.4, 0.117200
2217.35, 0.116819
2218.3, 0.116819
2219.24, 0.117009
2220.2, 0.117136
2221.15, 0.117073
2222.1, 0.117073
2223.05, 0.117073
2224.0, 0.117263
2224.96, 0.117708
2225.91, 0.117708
2226.87, 0.117200
2227.83, 0.116946
2228.79, 0.117136
2229.74, 0.117263
2230.7, 0.117327
2231.66, 0.117454
2232.63, 0.117136
2233.59, 0.116946
2234.55, 0.117200
2235.51, 0.117200
2236.48, 0.117581
2237.44, 0.118090
2238.41, 0.117963
2239.38, 0.117581
2240.34, 0.117200
2241.31, 0.116946
2242.28, 0.117581
2243.25, 0.117835
2244.22, 0.117518
2245.19, 0.117136
2246.17, 0.117200
2247.14, 0.117518
2248.12, 0.117263
2249.09, 0.117136
2250.07, 0.117327
2251.04, 0.117899
2252.02, 0.117963
2253.0, 0.117454
2253.98, 0.117136
2254.96, 0.117200
2255.94, 0.117136
2256.92, 0.117327
2257.91, 0.117581
2258.89, 0.117518
2259.88, 0.117391
2260.86, 0.117263
2261.85, 0.117581
2262.83, 0.117708
2263.82, 0.117645
2264.81, 0.117772
2265.8, 0.117899
2266.79, 0.117963
2267.78, 0.117772
2268.78, 0.117899
2269.77, 0.117708
2270.76, 0.117645
2271.76, 0.118026
2272.75, 0.117899
2273.75, 0.117645
2274.75, 0.117518
2275.75, 0.117581
2276.75, 0.117454
2277.75, 0.117708
2278.75, 0.117963
2279.75, 0.117772
2280.75, 0.118090
2281.76, 0.118280
2282.76, 0.118026
2283.77, 0.118026
2284.77, 0.118344
2285.78, 0.118471
2286.79, 0.118471
2287.8, 0.118026
2288.81, 0.117835
2289.82, 0.118026
2290.83, 0.117963
2291.84, 0.118026
2292.86, 0.118217
2293.87, 0.118280
2294.89, 0.118344
2295.91, 0.118026
2296.92, 0.117899
2297.94, 0.118090
2298.96, 0.118153
2299.98, 0.118344
2301.0, 0.118217
2302.02, 0.118090
2303.04, 0.118090
2304.07, 0.118344
2305.09, 0.118471
2306.12, 0.118662
2307.15, 0.118598
2308.17, 0.118471
2309.2, 0.118153
2310.23, 0.118280
2311.26, 0.118598
2312.29, 0.118662
2313.32, 0.118789
2314.35, 0.118598
2315.39, 0.118662
2316.42, 0.118662
2317.46, 0.118535
