Database of Origin, USGS Spectral Database
Sample Description, See USGS database for additional info
Date Added,2017-07-03 06:06:53.148544

Data ID,USGS_oli33          
Sample ID, olivine_ki4143.17147
Mineral Name, olivine
Material Class,Nesosilicate

Wavelength
1280.99, 0.239881
1281.3, 0.239881
1281.62, 0.239881
1281.94, 0.239881
1282.25, 0.239881
1282.57, 0.239881
1282.89, 0.239881
1283.21, 0.239881
1283.52, 0.239881
1283.84, 0.239881
1284.16, 0.239881
1284.48, 0.239881
1284.8, 0.239881
1285.11, 0.239881
1285.43, 0.239881
1285.75, 0.239881
1286.07, 0.239881
1286.39, 0.239881
1286.71, 0.239881
1287.03, 0.239881
1287.35, 0.239881
1287.67, 0.239881
1287.99, 0.239881
1288.31, 0.239881
1288.63, 0.239881
1288.95, 0.239881
1289.27, 0.239881
1289.59, 0.239881
1289.91, 0.239881
1290.23, 0.239881
1290.55, 0.239881
1290.88, 0.239881
1291.2, 0.239881
1291.52, 0.239881
1291.84, 0.239881
1292.16, 0.239881
1292.48, 0.239881
1292.81, 0.239881
1293.13, 0.239881
1293.45, 0.239881
1293.77, 0.239881
1294.1, 0.239881
1294.42, 0.239881
1294.74, 0.239881
1295.07, 0.239881
1295.39, 0.239881
1295.71, 0.239881
1296.04, 0.239881
1296.36, 0.239881
1296.69, 0.239881
1297.01, 0.239881
1297.34, 0.239881
1297.66, 0.239881
1297.98, 0.239881
1298.31, 0.239881
1298.64, 0.239881
1298.96, 0.239881
1299.29, 0.239881
1299.61, 0.239881
1299.94, 0.239881
1300.26, 0.239881
1300.59, 0.239881
1300.92, 0.239881
1301.24, 0.239881
1301.57, 0.239881
1301.9, 0.239881
1302.22, 0.239881
1302.55, 0.239881
1302.88, 0.239881
1303.21, 0.239881
1303.53, 0.239881
1303.86, 0.239881
1304.19, 0.239881
1304.52, 0.239881
1304.85, 0.239881
1305.17, 0.239881
1305.5, 0.239881
1305.83, 0.239881
1306.16, 0.239881
1306.49, 0.239881
1306.82, 0.239881
1307.15, 0.239881
1307.48, 0.239881
1307.81, 0.239881
1308.14, 0.239881
1308.47, 0.239881
1308.8, 0.239881
1309.13, 0.239881
1309.46, 0.239881
1309.79, 0.239881
1310.12, 0.239881
1310.45, 0.239881
1310.79, 0.239881
1311.12, 0.239881
1311.45, 0.239881
1311.78, 0.239881
1312.11, 0.239881
1312.44, 0.239881
1312.78, 0.239881
1313.11, 0.239881
1313.44, 0.239881
1313.77, 0.239881
1314.11, 0.239881
1314.44, 0.239881
1314.77, 0.239881
1315.11, 0.239881
1315.44, 0.239881
1315.78, 0.239881
1316.11, 0.239881
1316.44, 0.239881
1316.78, 0.239881
1317.11, 0.239881
1317.45, 0.239881
1317.78, 0.239881
1318.12, 0.239881
1318.45, 0.239881
1318.79, 0.239881
1319.12, 0.239881
1319.46, 0.239881
1319.8, 0.239881
1320.13, 0.239881
1320.47, 0.239881
1320.8, 0.239881
1321.14, 0.239881
1321.48, 0.239881
1321.81, 0.239881
1322.15, 0.239881
1322.49, 0.239881
1322.83, 0.239881
1323.16, 0.239881
1323.5, 0.239881
1323.84, 0.239881
1324.18, 0.239881
1324.52, 0.239881
1324.85, 0.239881
1325.19, 0.239881
1325.53, 0.239881
1325.87, 0.239881
1326.21, 0.239881
1326.55, 0.239881
1326.89, 0.239881
1327.23, 0.239881
1327.57, 0.239881
1327.91, 0.239881
1328.25, 0.239881
1328.59, 0.239881
1328.93, 0.239881
1329.27, 0.239881
1329.61, 0.239881
1329.95, 0.239881
1330.29, 0.239881
1330.64, 0.239881
1330.98, 0.239881
1331.32, 0.239881
1331.66, 0.239881
1332.0, 0.239881
1332.34, 0.239881
1332.69, 0.239881
1333.03, 0.239881
1333.37, 0.239881
1333.72, 0.239881
1334.06, 0.239881
1334.4, 0.239881
1334.75, 0.239881
1335.09, 0.239881
1335.43, 0.239881
1335.78, 0.239881
1336.12, 0.239881
1336.47, 0.239881
1336.81, 0.239881
1337.16, 0.239881
1337.5, 0.239881
1337.85, 0.239881
1338.19, 0.239881
1338.54, 0.239881
1338.88, 0.239881
1339.23, 0.239881
1339.58, 0.239881
1339.92, 0.239881
1340.27, 0.239881
1340.61, 0.239881
1340.96, 0.239881
1341.31, 0.239881
1341.66, 0.239881
1342.0, 0.239881
1342.35, 0.239881
1342.7, 0.239881
1343.05, 0.239881
1343.39, 0.239881
1343.74, 0.239881
1344.09, 0.239881
1344.44, 0.239881
1344.79, 0.239881
1345.14, 0.239881
1345.48, 0.239881
1345.83, 0.239881
1346.18, 0.239881
1346.53, 0.239881
1346.88, 0.239881
1347.23, 0.239881
1347.58, 0.239881
1347.93, 0.239881
1348.28, 0.239881
1348.64, 0.239881
1348.99, 0.239881
1349.34, 0.239881
1349.69, 0.239881
1350.04, 0.239881
1350.39, 0.239881
1350.74, 0.239881
1351.1, 0.239881
1351.45, 0.239881
1351.8, 0.239881
1352.15, 0.239881
1352.51, 0.239881
1352.86, 0.239881
1353.21, 0.239881
1353.56, 0.239881
1353.92, 0.239881
1354.27, 0.239881
1354.63, 0.239881
1354.98, 0.239881
1355.33, 0.239881
1355.69, 0.239881
1356.04, 0.239881
1356.4, 0.239881
1356.75, 0.239881
1357.11, 0.239881
1357.46, 0.239881
1357.82, 0.239881
1358.18, 0.239881
1358.53, 0.239881
1358.89, 0.239881
1359.24, 0.239881
1359.6, 0.239881
1359.96, 0.239881
1360.31, 0.239881
1360.67, 0.239881
1361.03, 0.239881
1361.39, 0.239881
1361.74, 0.239881
1362.1, 0.239881
1362.46, 0.239881
1362.82, 0.239881
1363.18, 0.239881
1363.53, 0.239881
1363.89, 0.239881
1364.25, 0.239881
1364.61, 0.239881
1364.97, 0.239881
1365.33, 0.239881
1365.69, 0.239881
1366.05, 0.239881
1366.41, 0.239881
1366.77, 0.239881
1367.13, 0.239881
1367.49, 0.239881
1367.85, 0.239881
1368.21, 0.239881
1368.57, 0.239881
1368.93, 0.239881
1369.3, 0.239881
1369.66, 0.239881
1370.02, 0.239881
1370.38, 0.239881
1370.74, 0.239881
1371.11, 0.239881
1371.47, 0.239881
1371.83, 0.239881
1372.19, 0.239881
1372.56, 0.239881
1372.92, 0.239881
1373.29, 0.239881
1373.65, 0.239881
1374.01, 0.239881
1374.38, 0.239881
1374.74, 0.239881
1375.11, 0.239881
1375.47, 0.239881
1375.84, 0.239881
1376.2, 0.239881
1376.57, 0.239881
1376.93, 0.239881
1377.3, 0.239881
1377.67, 0.239881
1378.03, 0.239881
1378.4, 0.239881
1378.76, 0.239881
1379.13, 0.239881
1379.5, 0.239881
1379.87, 0.239881
1380.23, 0.239881
1380.6, 0.239881
1380.97, 0.239881
1381.34, 0.239881
1381.7, 0.239881
1382.07, 0.239881
1382.44, 0.239881
1382.81, 0.239881
1383.18, 0.239881
1383.55, 0.239881
1383.92, 0.239881
1384.29, 0.239881
1384.66, 0.239881
1385.03, 0.239881
1385.4, 0.239881
1385.77, 0.239881
1386.14, 0.239881
1386.51, 0.239881
1386.88, 0.239881
1387.25, 0.239881
1387.62, 0.239881
1387.99, 0.239881
1388.36, 0.239881
1388.74, 0.239881
1389.11, 0.239881
1389.48, 0.239881
1389.85, 0.239881
1390.23, 0.239881
1390.6, 0.239881
1390.97, 0.239881
1391.35, 0.239881
1391.72, 0.239881
1392.09, 0.239881
1392.47, 0.239881
1392.84, 0.239881
1393.21, 0.239881
1393.59, 0.239881
1393.96, 0.239881
1394.34, 0.239881
1394.71, 0.239881
1395.09, 0.239881
1395.46, 0.239881
1395.84, 0.239881
1396.22, 0.239881
1396.59, 0.239881
1396.97, 0.239881
1397.35, 0.239881
1397.72, 0.239881
1398.1, 0.239881
1398.48, 0.239881
1398.85, 0.239881
1399.23, 0.239881
1399.61, 0.239881
1399.99, 0.239881
1400.37, 0.239881
1400.74, 0.239881
1401.12, 0.239881
1401.5, 0.239881
1401.88, 0.239881
1402.26, 0.239881
1402.64, 0.239881
1403.02, 0.239881
1403.4, 0.239881
1403.78, 0.239881
1404.16, 0.239881
1404.54, 0.239881
1404.92, 0.239881
1405.3, 0.239881
1405.68, 0.239881
1406.06, 0.239881
1406.44, 0.239881
1406.83, 0.239881
1407.21, 0.239881
1407.59, 0.239881
1407.97, 0.239881
1408.35, 0.239881
1408.74, 0.239881
1409.12, 0.239881
1409.5, 0.239881
1409.89, 0.239881
1410.27, 0.239881
1410.65, 0.239881
1411.04, 0.239881
1411.42, 0.239881
1411.81, 0.239881
1412.19, 0.239881
1412.58, 0.239881
1412.96, 0.239881
1413.35, 0.239881
1413.73, 0.239881
1414.12, 0.239881
1414.5, 0.239881
1414.89, 0.239881
1415.28, 0.239881
1415.66, 0.239881
1416.05, 0.239881
1416.44, 0.239881
1416.82, 0.239881
1417.21, 0.239881
1417.6, 0.239881
1417.98, 0.239881
1418.37, 0.239881
1418.76, 0.239881
1419.15, 0.239881
1419.54, 0.239881
1419.93, 0.239881
1420.32, 0.239881
1420.71, 0.239881
1421.09, 0.239881
1421.48, 0.239881
1421.88, 0.239881
1422.27, 0.239881
1422.66, 0.239881
1423.05, 0.239881
1423.44, 0.239881
1423.83, 0.239881
1424.22, 0.239881
1424.61, 0.239881
1425.0, 0.239881
1425.39, 0.239881
1425.78, 0.239881
1426.18, 0.239881
1426.57, 0.239881
1426.96, 0.239881
1427.36, 0.239881
1427.75, 0.239881
1428.14, 0.239881
1428.54, 0.239881
1428.93, 0.239881
1429.32, 0.239881
1429.72, 0.239881
1430.11, 0.239881
1430.51, 0.239881
1430.9, 0.239881
1431.3, 0.239881
1431.69, 0.239881
1432.09, 0.239881
1432.48, 0.239881
1432.88, 0.239881
1433.28, 0.239881
1433.67, 0.239881
1434.07, 0.239881
1434.46, 0.239881
1434.86, 0.239881
1435.26, 0.239881
1435.66, 0.239881
1436.05, 0.239881
1436.45, 0.239881
1436.85, 0.239881
1437.25, 0.239881
1437.65, 0.239881
1438.05, 0.239881
1438.44, 0.239881
1438.84, 0.239881
1439.24, 0.239881
1439.64, 0.239881
1440.04, 0.239881
1440.44, 0.239881
1440.84, 0.239881
1441.24, 0.239881
1441.65, 0.239881
1442.05, 0.239881
1442.45, 0.239881
1442.85, 0.239881
1443.25, 0.239881
1443.65, 0.239881
1444.05, 0.239881
1444.46, 0.239881
1444.86, 0.239881
1445.26, 0.239881
1445.67, 0.239881
1446.07, 0.239881
1446.47, 0.239881
1446.88, 0.239881
1447.28, 0.239881
1447.68, 0.239881
1448.09, 0.239881
1448.49, 0.239881
1448.9, 0.239881
1449.3, 0.239881
1449.71, 0.239881
1450.11, 0.239881
1450.52, 0.239881
1450.93, 0.239881
1451.33, 0.239881
1451.74, 0.239881
1452.14, 0.239881
1452.55, 0.239881
1452.96, 0.239881
1453.36, 0.239881
1453.77, 0.239881
1454.18, 0.239881
1454.59, 0.239881
1455.0, 0.239881
1455.41, 0.239881
1455.81, 0.239881
1456.22, 0.239881
1456.63, 0.239881
1457.04, 0.239881
1457.45, 0.239881
1457.86, 0.239881
1458.27, 0.239881
1458.68, 0.239881
1459.09, 0.239881
1459.5, 0.239881
1459.91, 0.239881
1460.32, 0.239881
1460.74, 0.239881
1461.15, 0.239881
1461.56, 0.239881
1461.97, 0.239881
1462.39, 0.239881
1462.8, 0.239881
1463.21, 0.239881
1463.62, 0.239881
1464.04, 0.239881
1464.45, 0.239881
1464.86, 0.239881
1465.28, 0.239881
1465.69, 0.239881
1466.11, 0.239881
1466.52, 0.239881
1466.94, 0.239881
1467.35, 0.239881
1467.77, 0.239881
1468.18, 0.239881
1468.6, 0.239881
1469.02, 0.239881
1469.43, 0.239881
1469.85, 0.239881
1470.27, 0.239881
1470.68, 0.239881
1471.1, 0.239881
1471.52, 0.239881
1471.94, 0.239881
1472.35, 0.239881
1472.77, 0.239881
1473.19, 0.239881
1473.61, 0.239881
1474.03, 0.239881
1474.45, 0.239881
1474.87, 0.239881
1475.29, 0.239881
1475.71, 0.239881
1476.13, 0.239881
1476.55, 0.239881
1476.97, 0.239881
1477.39, 0.239881
1477.81, 0.239881
1478.23, 0.239881
1478.65, 0.239881
1479.07, 0.239881
1479.5, 0.239881
1479.92, 0.239881
1480.34, 0.239881
1480.76, 0.239881
1481.19, 0.239881
1481.61, 0.239881
1482.03, 0.239881
1482.46, 0.239881
1482.88, 0.239881
1483.31, 0.239881
1483.73, 0.239881
1484.16, 0.239881
1484.58, 0.239881
1485.01, 0.239881
1485.43, 0.239881
1485.86, 0.239881
1486.28, 0.239881
1486.71, 0.239881
1487.14, 0.239881
1487.56, 0.239881
1487.99, 0.239881
1488.42, 0.239881
1488.84, 0.239881
1489.27, 0.239881
1489.7, 0.239881
1490.13, 0.239881
1490.56, 0.239881
1490.98, 0.239881
1491.41, 0.239881
1491.84, 0.239881
1492.27, 0.239881
1492.7, 0.239881
1493.13, 0.239881
1493.56, 0.239881
1493.99, 0.239881
1494.42, 0.239881
1494.85, 0.239881
1495.29, 0.239881
1495.72, 0.239881
1496.15, 0.239881
1496.58, 0.239881
1497.01, 0.239881
1497.44, 0.239881
1497.88, 0.239881
1498.31, 0.239881
1498.74, 0.239881
1499.18, 0.239881
1499.61, 0.239881
1500.04, 0.239881
1500.48, 0.239881
1500.91, 0.239881
1501.35, 0.239881
1501.78, 0.239881
1502.22, 0.239881
1502.65, 0.239881
1503.09, 0.239881
1503.53, 0.239881
1503.96, 0.239881
1504.4, 0.239881
1504.83, 0.239881
1505.27, 0.239881
1505.71, 0.239881
1506.15, 0.239881
1506.58, 0.239881
1507.02, 0.239881
1507.46, 0.239881
1507.9, 0.239881
1508.34, 0.239881
1508.78, 0.239881
1509.21, 0.239881
1509.66, 0.239881
1510.09, 0.239881
1510.53, 0.239881
1510.97, 0.239881
1511.42, 0.239881
1511.86, 0.239881
1512.3, 0.239881
1512.74, 0.239881
1513.18, 0.239881
1513.62, 0.239881
1514.06, 0.239881
1514.51, 0.239881
1514.95, 0.239881
1515.39, 0.239881
1515.83, 0.239881
1516.28, 0.239881
1516.72, 0.239881
1517.16, 0.239881
1517.61, 0.239881
1518.05, 0.239881
1518.5, 0.239881
1518.94, 0.239881
1519.39, 0.239881
1519.83, 0.239881
1520.28, 0.239881
1520.73, 0.239881
1521.17, 0.239881
1521.62, 0.239881
1522.07, 0.239881
1522.51, 0.239881
1522.96, 0.239881
1523.41, 0.239881
1523.85, 0.239881
1524.3, 0.239881
1524.75, 0.239881
1525.2, 0.239881
1525.65, 0.239881
1526.1, 0.239881
1526.55, 0.239881
1527.0, 0.239881
1527.45, 0.239881
1527.9, 0.239881
1528.35, 0.239881
1528.8, 0.239881
1529.25, 0.239881
1529.7, 0.239881
1530.15, 0.239881
1530.6, 0.239881
1531.05, 0.239881
1531.51, 0.239881
1531.96, 0.239881
1532.41, 0.239881
1532.87, 0.239881
1533.32, 0.239881
1533.77, 0.239881
1534.23, 0.239881
1534.68, 0.239881
1535.14, 0.239881
1535.59, 0.239881
1536.05, 0.239881
1536.5, 0.239881
1536.96, 0.239881
1537.41, 0.239881
1537.87, 0.239881
1538.32, 0.239881
1538.78, 0.239881
1539.24, 0.239881
1539.7, 0.239881
1540.15, 0.239881
1540.61, 0.239881
1541.07, 0.239881
1541.53, 0.239881
1541.98, 0.239881
1542.44, 0.239881
1542.9, 0.239881
1543.36, 0.239881
1543.82, 0.239881
1544.28, 0.239881
1544.74, 0.239881
1545.2, 0.239881
1545.66, 0.239881
1546.12, 0.239881
1546.59, 0.239881
1547.05, 0.239881
1547.51, 0.239881
1547.97, 0.239881
1548.43, 0.239881
1548.9, 0.239881
1549.36, 0.239881
1549.82, 0.239881
1550.29, 0.239881
1550.75, 0.239881
1551.21, 0.239881
1551.68, 0.239881
1552.14, 0.239881
1552.61, 0.239881
1553.07, 0.239881
1553.54, 0.239881
1554.0, 0.239881
1554.47, 0.239881
1554.93, 0.239881
1555.4, 0.239881
1555.87, 0.239881
1556.34, 0.239881
1556.8, 0.239881
1557.27, 0.239881
1557.74, 0.239881
1558.21, 0.239881
1558.68, 0.239881
1559.14, 0.239881
1559.61, 0.239881
1560.08, 0.239881
1560.55, 0.239881
1561.02, 0.239881
1561.49, 0.239881
1561.96, 0.239881
1562.43, 0.239881
1562.9, 0.239881
1563.38, 0.239881
1563.85, 0.239881
1564.32, 0.239881
1564.79, 0.239881
1565.26, 0.239881
1565.74, 0.239881
1566.21, 0.239881
1566.68, 0.239881
1567.16, 0.239881
1567.63, 0.239881
1568.1, 0.239881
1568.58, 0.239881
1569.05, 0.239881
1569.53, 0.239881
1570.0, 0.239881
1570.48, 0.239881
1570.96, 0.239881
1571.43, 0.239881
1571.91, 0.239881
1572.39, 0.239881
1572.86, 0.239881
1573.34, 0.239881
1573.82, 0.239881
1574.3, 0.239881
1574.77, 0.239881
1575.25, 0.239881
1575.73, 0.239881
1576.21, 0.239881
1576.69, 0.239881
1577.17, 0.239881
1577.65, 0.239881
1578.13, 0.239881
1578.61, 0.239881
1579.09, 0.239881
1579.57, 0.239881
1580.05, 0.239881
1580.54, 0.239881
1581.02, 0.239881
1581.5, 0.239881
1581.98, 0.239881
1582.47, 0.239881
1582.95, 0.239881
1583.43, 0.239881
1583.92, 0.239881
1584.4, 0.239881
1584.88, 0.239881
1585.37, 0.239881
1585.85, 0.239881
1586.34, 0.239881
1586.82, 0.239881
1587.31, 0.239881
1587.8, 0.239881
1588.28, 0.239881
1588.77, 0.239881
1589.26, 0.239881
1589.74, 0.239881
1590.23, 0.239881
1590.72, 0.239881
1591.21, 0.239881
1591.7, 0.239881
1592.19, 0.239881
1592.67, 0.239881
1593.16, 0.239881
1593.65, 0.239881
1594.14, 0.239881
1594.63, 0.239881
1595.12, 0.239881
1595.61, 0.239881
1596.11, 0.239881
1596.6, 0.239881
1597.09, 0.239881
1597.58, 0.239881
1598.08, 0.239881
1598.57, 0.239881
1599.06, 0.239881
1599.55, 0.239881
1600.05, 0.239881
1600.54, 0.239881
1601.04, 0.239881
1601.53, 0.239881
1602.03, 0.239881
1602.52, 0.239881
1603.02, 0.239881
1603.51, 0.239881
1604.01, 0.239881
1604.5, 0.239881
1605.0, 0.239881
1605.5, 0.239881
1606.0, 0.239881
1606.49, 0.239881
1606.99, 0.239881
1607.49, 0.239881
1607.99, 0.239881
1608.49, 0.239881
1608.99, 0.239881
1609.49, 0.239881
1609.99, 0.239881
1610.49, 0.239881
1610.99, 0.239881
1611.49, 0.239881
1611.99, 0.239881
1612.49, 0.239881
1612.99, 0.239881
1613.49, 0.239881
1614.0, 0.239881
1614.5, 0.239881
1615.0, 0.239881
1615.51, 0.239881
1616.01, 0.239881
1616.51, 0.239881
1617.02, 0.239881
1617.52, 0.239881
1618.03, 0.239881
1618.53, 0.239881
1619.04, 0.239881
1619.54, 0.239881
1620.05, 0.239881
1620.55, 0.239881
1621.06, 0.239881
1621.57, 0.239881
1622.08, 0.239881
1622.58, 0.239881
1623.09, 0.239881
1623.6, 0.239881
1624.11, 0.239881
1624.62, 0.239881
1625.13, 0.239881
1625.64, 0.239881
1626.15, 0.239881
1626.66, 0.239881
1627.17, 0.239881
1627.68, 0.239881
1628.19, 0.239881
1628.7, 0.239881
1629.21, 0.239881
1629.72, 0.239881
1630.24, 0.239881
1630.75, 0.239881
1631.26, 0.239881
1631.78, 0.239881
1632.29, 0.239881
1632.8, 0.239881
1633.32, 0.239881
1633.83, 0.239881
1634.35, 0.239881
1634.86, 0.239881
1635.38, 0.239881
1635.9, 0.239881
1636.41, 0.239881
1636.93, 0.239881
1637.45, 0.239881
1637.96, 0.239881
1638.48, 0.239881
1639.0, 0.239881
1639.52, 0.239881
1640.04, 0.239881
1640.56, 0.239881
1641.08, 0.239881
1641.59, 0.239881
1642.11, 0.239881
1642.63, 0.239881
1643.16, 0.239881
1643.68, 0.239881
1644.2, 0.239881
1644.72, 0.239881
1645.24, 0.239881
1645.76, 0.239881
1646.29, 0.239881
1646.81, 0.239881
1647.33, 0.239881
1647.86, 0.239881
1648.38, 0.239881
1648.9, 0.239881
1649.43, 0.239881
1649.95, 0.239881
1650.48, 0.239881
1651.0, 0.239881
1651.53, 0.239881
1652.06, 0.239881
1652.58, 0.239881
1653.11, 0.239881
1653.64, 0.239881
1654.17, 0.239881
1654.69, 0.239881
1655.22, 0.239881
1655.75, 0.239881
1656.28, 0.239881
1656.81, 0.239881
1657.34, 0.239881
1657.87, 0.239881
1658.4, 0.239881
1658.93, 0.239881
1659.46, 0.239881
1659.99, 0.239881
1660.52, 0.239881
1661.05, 0.239881
1661.59, 0.239881
1662.12, 0.239881
1662.65, 0.239881
1663.19, 0.239881
1663.72, 0.239881
1664.26, 0.239881
1664.79, 0.239881
1665.32, 0.239881
1665.86, 0.239881
1666.39, 0.239881
1666.93, 0.239881
1667.47, 0.239881
1668.0, 0.239881
1668.54, 0.239881
1669.08, 0.239881
1669.61, 0.239881
1670.15, 0.239881
1670.69, 0.239881
1671.23, 0.239881
1671.77, 0.239881
1672.31, 0.239881
1672.85, 0.239881
1673.39, 0.239881
1673.93, 0.239881
1674.47, 0.239881
1675.01, 0.239881
1675.55, 0.239881
1676.09, 0.239881
1676.64, 0.239881
1677.18, 0.239881
1677.72, 0.239881
1678.26, 0.239881
1678.81, 0.239881
1679.35, 0.239881
1679.89, 0.239881
1680.44, 0.239881
1680.98, 0.239881
1681.53, 0.239881
1682.07, 0.239881
1682.62, 0.239881
1683.17, 0.239881
1683.71, 0.239881
1684.26, 0.239881
1684.81, 0.239881
1685.36, 0.239881
1685.9, 0.239881
1686.45, 0.239881
1687.0, 0.239881
1687.55, 0.239881
1688.1, 0.239881
1688.65, 0.239881
1689.2, 0.239881
1689.75, 0.239881
1690.3, 0.239881
1690.85, 0.239881
1691.41, 0.239881
1691.96, 0.239881
1692.51, 0.239881
1693.06, 0.239881
1693.61, 0.239881
1694.17, 0.239881
1694.72, 0.239881
1695.28, 0.239881
1695.83, 0.239881
1696.39, 0.239881
1696.94, 0.239881
1697.5, 0.239881
1698.05, 0.239881
1698.61, 0.239881
1699.17, 0.239881
1699.72, 0.239881
1700.28, 0.239881
1700.84, 0.239881
1701.4, 0.239881
1701.95, 0.239881
1702.51, 0.239881
1703.07, 0.239881
1703.63, 0.239881
1704.19, 0.239881
1704.75, 0.239881
1705.31, 0.239881
1705.88, 0.239881
1706.44, 0.239881
1707.0, 0.239881
1707.56, 0.239881
1708.12, 0.239881
1708.69, 0.239881
1709.25, 0.239881
1709.81, 0.239881
1710.38, 0.239881
1710.94, 0.239881
1711.51, 0.239881
1712.07, 0.239881
1712.64, 0.239881
1713.2, 0.239881
1713.77, 0.239881
1714.34, 0.239881
1714.9, 0.239881
1715.47, 0.239881
1716.04, 0.239881
1716.61, 0.239881
1717.18, 0.239881
1717.74, 0.239881
1718.31, 0.239881
1718.88, 0.239881
1719.45, 0.239881
1720.02, 0.239881
1720.59, 0.239881
1721.17, 0.239881
1721.74, 0.239881
1722.31, 0.239881
1722.88, 0.239881
1723.45, 0.239881
1724.03, 0.239881
1724.6, 0.239881
1725.18, 0.239881
