Database of Origin, USGS Spectral Database
Sample Description, See USGS database for additional info
Date Added,2016-08-03 20:55:33.012453

Data ID,USGS_alu16          
Sample ID, alunite_hs295.1425
Mineral Name, alunite
Material Class,Sulfate

Wavelength
1374.74, 0.307394
1375.11, 0.307618
1375.47, 0.307349
1375.84, 0.307035
1376.2, 0.306497
1376.57, 0.306094
1376.93, 0.305825
1377.3, 0.305735
1377.67, 0.305467
1378.03, 0.305287
1378.4, 0.305377
1378.76, 0.305332
1379.13, 0.304749
1379.5, 0.304839
1379.87, 0.304929
1380.23, 0.304391
1380.6, 0.303763
1380.97, 0.303674
1381.34, 0.303808
1381.7, 0.303943
1382.07, 0.303763
1382.44, 0.303494
1382.81, 0.303181
1383.18, 0.303091
1383.55, 0.302688
1383.92, 0.302688
1384.29, 0.302419
1384.66, 0.301791
1385.03, 0.301701
1385.4, 0.301433
1385.77, 0.301433
1386.14, 0.301388
1386.51, 0.300715
1386.88, 0.300402
1387.25, 0.300088
1387.62, 0.299460
1387.99, 0.299236
1388.36, 0.299550
1388.74, 0.299371
1389.11, 0.299191
1389.48, 0.298698
1389.85, 0.298474
1390.23, 0.298205
1390.6, 0.297488
1390.97, 0.296995
1391.35, 0.296592
1391.72, 0.296233
1392.09, 0.295875
1392.47, 0.295426
1392.84, 0.295202
1393.21, 0.294799
1393.59, 0.294440
1393.96, 0.293992
1394.34, 0.293589
1394.71, 0.293275
1395.09, 0.292871
1395.46, 0.292468
1395.84, 0.292109
1396.22, 0.291706
1396.59, 0.291347
1396.97, 0.291123
1397.35, 0.290496
1397.72, 0.289958
1398.1, 0.289465
1398.48, 0.288972
1398.85, 0.288344
1399.23, 0.287717
1399.61, 0.287537
1399.99, 0.287089
1400.37, 0.286372
1400.74, 0.285834
1401.12, 0.285789
1401.5, 0.285386
1401.88, 0.284490
1402.26, 0.283683
1402.64, 0.283145
1403.02, 0.282473
1403.4, 0.281711
1403.78, 0.280993
1404.16, 0.280187
1404.54, 0.279111
1404.92, 0.278349
1405.3, 0.277856
1405.68, 0.277497
1406.06, 0.277004
1406.44, 0.276197
1406.83, 0.275660
1407.21, 0.275301
1407.59, 0.274808
1407.97, 0.274225
1408.35, 0.273105
1408.74, 0.271939
1409.12, 0.271222
1409.5, 0.270863
1409.89, 0.270191
1410.27, 0.269698
1410.65, 0.269205
1411.04, 0.268398
1411.42, 0.267547
1411.81, 0.266695
1412.19, 0.265754
1412.58, 0.265261
1412.96, 0.264364
1413.35, 0.263423
1413.73, 0.262706
1414.12, 0.261764
1414.5, 0.261002
1414.89, 0.260240
1415.28, 0.259075
1415.66, 0.257551
1416.05, 0.256296
1416.44, 0.255176
1416.82, 0.253786
1417.21, 0.252172
1417.6, 0.250380
1417.98, 0.248631
1418.37, 0.246838
1418.76, 0.244732
1419.15, 0.242222
1419.54, 0.238950
1419.93, 0.235229
1420.32, 0.231599
1420.71, 0.226892
1421.09, 0.221379
1421.48, 0.216269
1421.88, 0.210980
1422.27, 0.205288
1422.66, 0.199864
1423.05, 0.194530
1423.44, 0.189107
1423.83, 0.183504
1424.22, 0.178081
1424.61, 0.172612
1425.0, 0.167502
1425.39, 0.164051
1425.78, 0.163334
1426.18, 0.165485
1426.57, 0.169654
1426.96, 0.174136
1427.36, 0.177767
1427.75, 0.180456
1428.14, 0.182428
1428.54, 0.184132
1428.93, 0.185476
1429.32, 0.186328
1429.72, 0.186866
1430.11, 0.186866
1430.51, 0.186059
1430.9, 0.184804
1431.3, 0.184132
1431.69, 0.184625
1432.09, 0.187224
1432.48, 0.190989
1432.88, 0.194934
1433.28, 0.198564
1433.67, 0.201702
1434.07, 0.204391
1434.46, 0.207170
1434.86, 0.210218
1435.26, 0.213311
1435.66, 0.215866
1436.05, 0.218376
1436.45, 0.220662
1436.85, 0.222455
1437.25, 0.223889
1437.65, 0.225010
1438.05, 0.225772
1438.44, 0.226220
1438.84, 0.226399
1439.24, 0.226489
1439.64, 0.226668
1440.04, 0.226623
1440.44, 0.226310
1440.84, 0.225682
1441.24, 0.225368
1441.65, 0.225279
1442.05, 0.225010
1442.45, 0.224382
1442.85, 0.223934
1443.25, 0.223934
1443.65, 0.223576
1444.05, 0.223217
1444.46, 0.222769
1444.86, 0.222365
1445.26, 0.222186
1445.67, 0.221603
1446.07, 0.220886
1446.47, 0.220303
1446.88, 0.219362
1447.28, 0.218376
1447.68, 0.217614
1448.09, 0.216852
1448.49, 0.215956
1448.9, 0.215014
1449.3, 0.213894
1449.71, 0.212684
1450.11, 0.211653
1450.52, 0.210487
1450.93, 0.209232
1451.33, 0.208291
1451.74, 0.207439
1452.14, 0.206498
1452.55, 0.205333
1452.96, 0.204436
1453.36, 0.203674
1453.77, 0.202778
1454.18, 0.201837
1454.59, 0.201209
1455.0, 0.200626
1455.41, 0.199864
1455.81, 0.199013
1456.22, 0.198340
1456.63, 0.197354
1457.04, 0.196727
1457.45, 0.196144
1457.86, 0.195561
1458.27, 0.195068
1458.68, 0.194844
1459.09, 0.194665
1459.5, 0.194575
1459.91, 0.194172
1460.32, 0.193993
1460.74, 0.194217
1461.15, 0.194620
1461.56, 0.194799
1461.97, 0.194979
1462.39, 0.195068
1462.8, 0.195068
1463.21, 0.195023
1463.62, 0.194844
1464.04, 0.194441
1464.45, 0.194127
1464.86, 0.193903
1465.28, 0.193410
1465.69, 0.192827
1466.11, 0.192155
1466.52, 0.190900
1466.94, 0.190003
1467.35, 0.188972
1467.77, 0.187628
1468.18, 0.185924
1468.6, 0.184221
1469.02, 0.182787
1469.43, 0.180904
1469.85, 0.178663
1470.27, 0.176467
1470.68, 0.173733
1471.1, 0.170640
1471.52, 0.167368
1471.94, 0.163872
1472.35, 0.160196
1472.77, 0.155804
1473.19, 0.150918
1473.61, 0.146301
1474.03, 0.141460
1474.45, 0.136037
1474.87, 0.130524
1475.29, 0.125459
1475.71, 0.120618
1476.13, 0.116270
1476.55, 0.112819
1476.97, 0.110443
1477.39, 0.109547
1477.81, 0.110309
1478.23, 0.112595
1478.65, 0.116270
1479.07, 0.120887
1479.5, 0.126355
1479.92, 0.132899
1480.34, 0.139623
1480.76, 0.146436
1481.19, 0.153114
1481.61, 0.159165
1482.03, 0.164858
1482.46, 0.170416
1482.88, 0.175436
1483.31, 0.179918
1483.73, 0.183952
1484.16, 0.187538
1484.58, 0.191034
1485.01, 0.194441
1485.43, 0.197623
1485.86, 0.200447
1486.28, 0.202912
1486.71, 0.205333
1487.14, 0.207708
1487.56, 0.209456
1487.99, 0.210756
1488.42, 0.212056
1488.84, 0.213311
1489.27, 0.214521
1489.7, 0.215552
1490.13, 0.216404
1490.56, 0.217031
1490.98, 0.217659
1491.41, 0.218376
1491.84, 0.219004
1492.27, 0.219362
1492.7, 0.219766
1493.13, 0.220303
1493.56, 0.220528
1493.99, 0.220707
1494.42, 0.221021
1494.85, 0.221738
1495.29, 0.222052
1495.72, 0.221962
1496.15, 0.222186
1496.58, 0.222679
1497.01, 0.223262
1497.44, 0.223800
1497.88, 0.224203
1498.31, 0.224338
1498.74, 0.224517
1499.18, 0.225144
1499.61, 0.225682
1500.04, 0.226220
1500.48, 0.226803
1500.91, 0.227430
1501.35, 0.227968
1501.78, 0.228641
1502.22, 0.229402
1502.65, 0.230075
1503.09, 0.230613
1503.53, 0.231151
1503.96, 0.232092
1504.4, 0.233168
1504.83, 0.233885
1505.27, 0.234423
1505.71, 0.234960
1506.15, 0.235857
1506.58, 0.236843
1507.02, 0.237650
1507.46, 0.238501
1507.9, 0.239308
1508.34, 0.240294
1508.78, 0.241191
1509.21, 0.241729
1509.66, 0.242132
1510.09, 0.242670
1510.53, 0.243253
1510.97, 0.243656
1511.42, 0.244194
1511.86, 0.244732
1512.3, 0.245001
1512.74, 0.245090
1513.18, 0.245270
1513.62, 0.245539
1514.06, 0.245852
1514.51, 0.245897
1514.95, 0.246301
1515.39, 0.246435
1515.83, 0.246525
1516.28, 0.246883
1516.72, 0.247466
1517.16, 0.247959
1517.61, 0.248138
1518.05, 0.248138
1518.5, 0.248452
1518.94, 0.248900
1519.39, 0.249169
1519.83, 0.249528
1520.28, 0.249886
1520.73, 0.250066
1521.17, 0.250245
1521.62, 0.250514
1522.07, 0.250604
1522.51, 0.250783
1522.96, 0.250828
1523.41, 0.250783
1523.85, 0.251052
1524.3, 0.251455
1524.75, 0.251679
1525.2, 0.251590
1525.65, 0.251455
1526.1, 0.251545
1526.55, 0.251679
1527.0, 0.251814
1527.45, 0.251724
1527.9, 0.251500
1528.35, 0.251679
1528.8, 0.251903
1529.25, 0.251769
1529.7, 0.251769
1530.15, 0.251859
1530.6, 0.251859
1531.05, 0.251993
1531.51, 0.252128
1531.96, 0.252217
1532.41, 0.252486
1532.87, 0.252665
1533.32, 0.252665
1533.77, 0.252800
1534.23, 0.252845
1534.68, 0.253024
1535.14, 0.253293
1535.59, 0.253652
1536.05, 0.253965
1536.5, 0.254234
1536.96, 0.254234
1537.41, 0.254369
1537.87, 0.254458
1538.32, 0.254682
1538.78, 0.255086
1539.24, 0.255220
1539.7, 0.255041
1540.15, 0.255220
1540.61, 0.255444
1541.07, 0.255489
1541.53, 0.255534
1541.98, 0.255848
1542.44, 0.255982
1542.9, 0.256027
1543.36, 0.256072
1543.82, 0.256072
1544.28, 0.256072
1544.74, 0.256565
1545.2, 0.256655
1545.66, 0.256610
1546.12, 0.256655
1546.59, 0.256924
1547.05, 0.256968
1547.51, 0.256924
1547.97, 0.257058
1548.43, 0.257237
1548.9, 0.257237
1549.36, 0.257327
1549.82, 0.257372
1550.29, 0.257417
1550.75, 0.257417
1551.21, 0.257506
1551.68, 0.257686
1552.14, 0.257686
1552.61, 0.257775
1553.07, 0.257910
1553.54, 0.258134
1554.0, 0.258313
1554.47, 0.258223
1554.93, 0.258313
1555.4, 0.258537
1555.87, 0.258672
1556.34, 0.258761
1556.8, 0.258896
1557.27, 0.258896
1557.74, 0.258761
1558.21, 0.258941
1558.68, 0.259030
1559.14, 0.259030
1559.61, 0.259165
1560.08, 0.259344
1560.55, 0.259523
1561.02, 0.259658
1561.49, 0.259568
1561.96, 0.259613
1562.43, 0.259568
1562.9, 0.259658
1563.38, 0.259747
1563.85, 0.259747
1564.32, 0.259747
1564.79, 0.259882
1565.26, 0.260061
1565.74, 0.260151
1566.21, 0.260106
1566.68, 0.260061
1567.16, 0.259882
1567.63, 0.260106
1568.1, 0.260285
1568.58, 0.260196
1569.05, 0.260151
1569.53, 0.260106
1570.0, 0.260106
1570.48, 0.260106
1570.96, 0.260375
1571.43, 0.260509
1571.91, 0.260465
1572.39, 0.260285
1572.86, 0.260465
1573.34, 0.260554
1573.82, 0.260465
1574.3, 0.260554
1574.77, 0.260644
1575.25, 0.260689
1575.73, 0.260734
1576.21, 0.260644
1576.69, 0.260823
1577.17, 0.260913
1577.65, 0.260823
1578.13, 0.260644
1578.61, 0.260644
1579.09, 0.260778
1579.57, 0.260868
1580.05, 0.261182
1580.54, 0.261047
1581.02, 0.260913
1581.5, 0.261047
1581.98, 0.261137
1582.47, 0.261227
1582.95, 0.260958
1583.43, 0.260868
1583.92, 0.260823
1584.4, 0.260958
1584.88, 0.261047
1585.37, 0.261137
1585.85, 0.261047
1586.34, 0.261047
1586.82, 0.261002
1587.31, 0.261092
1587.8, 0.261182
1588.28, 0.261092
1588.77, 0.261092
1589.26, 0.261406
1589.74, 0.261316
1590.23, 0.261361
1590.72, 0.261585
1591.21, 0.261720
1591.7, 0.261406
1592.19, 0.261361
1592.67, 0.261540
1593.16, 0.261585
1593.65, 0.261540
1594.14, 0.261630
1594.63, 0.261854
1595.12, 0.261899
1595.61, 0.261989
1596.11, 0.262168
1596.6, 0.262213
1597.09, 0.262258
1597.58, 0.262437
1598.08, 0.262571
1598.57, 0.262616
1599.06, 0.262661
1599.55, 0.262840
1600.05, 0.262795
1600.54, 0.262616
1601.04, 0.262795
1601.53, 0.263020
1602.03, 0.262975
1602.52, 0.262930
1603.02, 0.262930
1603.51, 0.262975
1604.01, 0.263244
1604.5, 0.263513
1605.0, 0.263468
1605.5, 0.263333
1606.0, 0.263378
1606.49, 0.263468
1606.99, 0.263557
1607.49, 0.263602
1607.99, 0.263602
1608.49, 0.263468
1608.99, 0.263647
1609.49, 0.263916
1609.99, 0.264050
1610.49, 0.263826
1610.99, 0.263826
1611.49, 0.263916
1611.99, 0.264140
1612.49, 0.264319
1612.99, 0.264319
1613.49, 0.264319
1614.0, 0.264454
1614.5, 0.264678
1615.0, 0.264857
1615.51, 0.264857
1616.01, 0.265037
1616.51, 0.265305
1617.02, 0.265261
1617.52, 0.265171
1618.03, 0.265171
1618.53, 0.265305
1619.04, 0.265350
1619.54, 0.265485
1620.05, 0.265664
1620.55, 0.265754
1621.06, 0.265754
1621.57, 0.265574
1622.08, 0.265530
1622.58, 0.265709
1623.09, 0.265933
1623.6, 0.265843
1624.11, 0.265709
1624.62, 0.265709
1625.13, 0.265798
1625.64, 0.266023
1626.15, 0.266202
1626.66, 0.266112
1627.17, 0.266157
1627.68, 0.266426
1628.19, 0.266605
1628.7, 0.266605
1629.21, 0.266650
1629.72, 0.266785
1630.24, 0.266695
1630.75, 0.266471
1631.26, 0.266560
1631.78, 0.266560
1632.29, 0.266560
1632.8, 0.266471
1633.32, 0.266605
1633.83, 0.266695
1634.35, 0.266695
1634.86, 0.266516
1635.38, 0.266560
1635.9, 0.266695
1636.41, 0.266785
1636.93, 0.266785
1637.45, 0.266740
1637.96, 0.266740
1638.48, 0.266874
1639.0, 0.266964
1639.52, 0.267009
1640.04, 0.266964
1640.56, 0.267054
1641.08, 0.266829
1641.59, 0.266740
1642.11, 0.266740
1642.63, 0.266785
1643.16, 0.266874
1643.68, 0.266874
1644.2, 0.266695
1644.72, 0.266650
1645.24, 0.266695
1645.76, 0.266740
1646.29, 0.266829
1646.81, 0.266874
1647.33, 0.266964
1647.86, 0.266964
1648.38, 0.266919
1648.9, 0.266919
1649.43, 0.266874
1649.95, 0.266829
1650.48, 0.266740
1651.0, 0.266695
1651.53, 0.266695
1652.06, 0.266695
1652.58, 0.266695
1653.11, 0.266650
1653.64, 0.266650
1654.17, 0.266650
1654.69, 0.266560
1655.22, 0.266560
1655.75, 0.266560
1656.28, 0.266560
1656.81, 0.266247
1657.34, 0.266157
1657.87, 0.266292
1658.4, 0.266381
1658.93, 0.266336
1659.46, 0.266157
1659.99, 0.266381
1660.52, 0.266560
1661.05, 0.266292
1661.59, 0.266157
1662.12, 0.266112
1662.65, 0.266112
1663.19, 0.266202
1663.72, 0.266157
1664.26, 0.265888
1664.79, 0.265843
1665.32, 0.265798
1665.86, 0.265933
1666.39, 0.265843
1666.93, 0.265798
1667.47, 0.265888
1668.0, 0.265754
1668.54, 0.265619
1669.08, 0.265485
1669.61, 0.265395
1670.15, 0.265440
1670.69, 0.265440
1671.23, 0.265350
1671.77, 0.265261
1672.31, 0.265171
1672.85, 0.265171
1673.39, 0.265171
1673.93, 0.264992
1674.47, 0.264992
1675.01, 0.264992
1675.55, 0.264947
1676.09, 0.264857
1676.64, 0.264902
1677.18, 0.264947
1677.72, 0.264812
1678.26, 0.264678
1678.81, 0.264543
1679.35, 0.264364
1679.89, 0.264364
1680.44, 0.264319
1680.98, 0.264140
1681.53, 0.263961
1682.07, 0.264050
1682.62, 0.264185
1683.17, 0.263916
1683.71, 0.263692
1684.26, 0.263737
1684.81, 0.263692
1685.36, 0.263557
1685.9, 0.263468
1686.45, 0.263423
1687.0, 0.263378
1687.55, 0.263244
1688.1, 0.263244
1688.65, 0.263288
1689.2, 0.263109
1689.75, 0.263154
1690.3, 0.263109
1690.85, 0.263064
1691.41, 0.262885
1691.96, 0.262840
1692.51, 0.262840
1693.06, 0.262840
1693.61, 0.262751
1694.17, 0.262571
1694.72, 0.262526
1695.28, 0.262392
1695.83, 0.262347
1696.39, 0.262347
1696.94, 0.262258
1697.5, 0.262258
1698.05, 0.262123
1698.61, 0.262168
1699.17, 0.261944
1699.72, 0.261809
1700.28, 0.261720
1700.84, 0.261630
1701.4, 0.261675
1701.95, 0.261630
1702.51, 0.261496
1703.07, 0.261361
1703.63, 0.261316
1704.19, 0.261182
1704.75, 0.261047
1705.31, 0.260958
1705.88, 0.260778
1706.44, 0.260689
1707.0, 0.260599
1707.56, 0.260375
1708.12, 0.260285
1708.69, 0.260151
1709.25, 0.259972
1709.81, 0.259747
1710.38, 0.259568
1710.94, 0.259568
1711.51, 0.259479
1712.07, 0.259210
1712.64, 0.258985
1713.2, 0.258806
1713.77, 0.258627
1714.34, 0.258403
1714.9, 0.258179
1715.47, 0.257910
1716.04, 0.257730
1716.61, 0.257686
1717.18, 0.257237
1717.74, 0.256834
1718.31, 0.256475
1718.88, 0.256072
1719.45, 0.255758
1720.02, 0.255444
1720.59, 0.255086
1721.17, 0.254682
1721.74, 0.254189
1722.31, 0.253741
1722.88, 0.253203
1723.45, 0.252665
1724.03, 0.252038
1724.6, 0.251500
1725.18, 0.250917
1725.75, 0.250514
1726.33, 0.249842
1726.9, 0.248900
1727.48, 0.248318
1728.05, 0.247869
1728.63, 0.247107
1729.2, 0.246435
1729.78, 0.245897
1730.36, 0.245135
1730.94, 0.244463
1731.51, 0.243791
1732.09, 0.243029
1732.67, 0.242536
1733.25, 0.241908
1733.83, 0.241101
1734.41, 0.240429
1734.99, 0.239981
1735.57, 0.239488
1736.15, 0.238860
1736.73, 0.238367
1737.32, 0.237740
1737.9, 0.236888
1738.48, 0.235991
1739.07, 0.235454
1739.65, 0.234736
1740.23, 0.233795
1740.82, 0.232899
1741.4, 0.231957
1741.99, 0.230971
1742.57, 0.230120
1743.16, 0.229223
1743.74, 0.228237
1744.33, 0.227475
1744.92, 0.226579
1745.51, 0.225637
1746.09, 0.224786
1746.68, 0.224069
1747.27, 0.223307
1747.86, 0.222545
1748.45, 0.221648
1749.04, 0.220841
1749.63, 0.220214
1750.22, 0.219676
1750.81, 0.219004
1751.4, 0.218466
1751.99, 0.217973
1752.59, 0.217524
1753.18, 0.217076
1753.77, 0.216807
1754.37, 0.216628
1754.96, 0.216359
1755.56, 0.215866
1756.15, 0.215328
1756.74, 0.214970
1757.34, 0.214566
1757.94, 0.213983
1758.53, 0.213401
1759.13, 0.212728
1759.73, 0.212146
1760.32, 0.211653
1760.92, 0.211339
1761.52, 0.210936
1762.12, 0.210532
1762.72, 0.210174
1763.32, 0.209591
1763.92, 0.209277
1764.52, 0.209098
1765.12, 0.208829
1765.72, 0.208560
1766.32, 0.208336
1766.92, 0.208336
1767.53, 0.208336
1768.13, 0.208381
1768.73, 0.208605
1769.34, 0.209098
1769.94, 0.209949
1770.55, 0.210801
1771.15, 0.211698
1771.76, 0.212773
1772.36, 0.213894
1772.97, 0.215059
1773.57, 0.216090
1774.18, 0.217211
1774.79, 0.218376
1775.4, 0.219183
1776.0, 0.219676
1776.61, 0.219900
1777.22, 0.220214
1777.83, 0.220662
1778.44, 0.221200
1779.05, 0.221872
1779.66, 0.222589
1780.27, 0.223441
1780.88, 0.224741
1781.5, 0.226310
1782.11, 0.227699
1782.72, 0.229044
1783.33, 0.230433
1783.95, 0.231644
1784.56, 0.233078
1785.18, 0.234378
1785.79, 0.235319
1786.41, 0.236440
1787.02, 0.237919
1787.64, 0.239443
1788.26, 0.240922
1788.87, 0.242670
1789.49, 0.244284
1790.11, 0.245718
1790.73, 0.247287
1791.35, 0.248766
1791.96, 0.250111
1792.58, 0.251410
1793.21, 0.252441
1793.83, 0.253338
1794.45, 0.254189
1795.07, 0.255041
1795.69, 0.255848
1796.31, 0.256341
1796.93, 0.256655
1797.56, 0.257193
1798.18, 0.257686
1798.8, 0.258044
1799.43, 0.258403
1800.05, 0.258851
1800.68, 0.259210
1801.3, 0.259613
1801.93, 0.259837
1802.56, 0.260196
1803.18, 0.260465
1803.81, 0.260689
1804.44, 0.261002
1805.07, 0.261227
1805.7, 0.261316
1806.33, 0.261496
1806.95, 0.261675
1807.58, 0.261720
1808.22, 0.261899
1808.85, 0.262168
1809.48, 0.262258
1810.11, 0.262302
1810.74, 0.262392
1811.38, 0.262437
1812.01, 0.262392
1812.64, 0.262437
1813.28, 0.262482
1813.91, 0.262571
1814.55, 0.262482
1815.18, 0.262526
1815.82, 0.262661
1816.45, 0.262840
1817.09, 0.262930
1817.73, 0.262930
1818.36, 0.262975
1819.0, 0.262975
1819.64, 0.263109
1820.28, 0.263109
1820.92, 0.262975
1821.56, 0.262930
1822.2, 0.263020
1822.84, 0.263154
1823.48, 0.263199
1824.12, 0.263154
1824.76, 0.263020
1825.41, 0.263020
1826.05, 0.262885
1826.69, 0.262840
1827.34, 0.262930
1827.98, 0.262840
1828.63, 0.262840
1829.27, 0.262930
1829.92, 0.262885
1830.56, 0.262616
1831.21, 0.262392
1831.86, 0.262258
1832.5, 0.262213
1833.15, 0.262347
1833.8, 0.262302
1834.45, 0.262213
1835.1, 0.262168
1835.75, 0.262168
1836.4, 0.262078
1837.05, 0.261809
1837.7, 0.261809
1838.35, 0.261899
1839.01, 0.261675
1839.66, 0.261451
1840.31, 0.261406
1840.96, 0.261406
1841.62, 0.261271
1842.27, 0.261271
1842.93, 0.261271
1843.58, 0.261271
1844.24, 0.261182
1844.9, 0.261092
1845.55, 0.260823
1846.21, 0.260734
1846.87, 0.260689
1847.53, 0.260778
1848.18, 0.260734
1848.84, 0.260644
1849.5, 0.260599
1850.16, 0.260554
1850.82, 0.260285
1851.48, 0.260061
1852.14, 0.260016
1852.81, 0.259927
1853.47, 0.259747
1854.13, 0.259658
1854.8, 0.259568
1855.46, 0.259479
1856.12, 0.259344
1856.79, 0.259120
1857.45, 0.258941
1858.12, 0.258717
1858.79, 0.258448
1859.45, 0.258223
1860.12, 0.258179
1860.79, 0.258044
1861.46, 0.257775
1862.12, 0.257551
1862.79, 0.257506
1863.46, 0.257282
1864.13, 0.257058
1864.8, 0.256834
1865.48, 0.256610
1866.15, 0.256341
1866.82, 0.256072
1867.49, 0.255669
1868.16, 0.255444
1868.84, 0.255131
1869.51, 0.254727
1870.19, 0.254414
1870.86, 0.254145
1871.54, 0.253831
1872.21, 0.253293
1872.89, 0.252845
1873.56, 0.252576
1874.24, 0.252352
1874.92, 0.251948
1875.6, 0.251545
1876.28, 0.251186
1876.96, 0.250783
1877.64, 0.250335
1878.32, 0.249931
1879.0, 0.249573
1879.68, 0.249124
1880.36, 0.248631
1881.04, 0.248273
1881.73, 0.247825
1882.41, 0.247242
1883.09, 0.246704
1883.78, 0.246211
1884.46, 0.245763
1885.15, 0.245270
1885.83, 0.244821
1886.52, 0.244239
1887.21, 0.243611
1887.89, 0.243118
1888.58, 0.242625
1889.27, 0.242042
1889.96, 0.241415
1890.65, 0.240832
1891.34, 0.240339
1892.03, 0.239712
1892.72, 0.238905
1893.41, 0.238322
1894.1, 0.237784
1894.79, 0.237112
1895.49, 0.236484
1896.18, 0.235767
1896.87, 0.235050
1897.57, 0.234333
1898.26, 0.233661
1898.96, 0.232988
1899.65, 0.232361
1900.35, 0.231688
