Database of Origin, USGS Spectral Database
Sample Description, See USGS database for additional info
Date Added,2016-08-03 21:28:41.171201

Data ID,USGS_cro02          
Sample ID, cronstedite_m3542.6540
Mineral Name, cronstedite
Material Class,Phyllosilicate

Wavelength
1578.13, 0.124402
1578.61, 0.124597
1579.09, 0.125476
1579.57, 0.125525
1580.05, 0.126599
1580.54, 0.125525
1581.02, 0.124548
1581.5, 0.125281
1581.98, 0.125671
1582.47, 0.124206
1582.95, 0.126746
1583.43, 0.128651
1583.92, 0.128260
1584.4, 0.128162
1584.88, 0.128016
1585.37, 0.128211
1585.85, 0.127625
1586.34, 0.127625
1586.82, 0.126697
1587.31, 0.125965
1587.8, 0.127234
1588.28, 0.127772
1588.77, 0.128700
1589.26, 0.128407
1589.74, 0.129090
1590.23, 0.130556
1590.72, 0.131826
1591.21, 0.130360
1591.7, 0.128993
1592.19, 0.128162
1592.67, 0.127918
1593.16, 0.128211
1593.65, 0.128407
1594.14, 0.130458
1594.63, 0.131093
1595.12, 0.130312
1595.61, 0.129188
1596.11, 0.128846
1596.6, 0.129579
1597.09, 0.128993
1597.58, 0.129139
1598.08, 0.128114
1598.57, 0.127723
1599.06, 0.128456
1599.55, 0.128749
1600.05, 0.131240
1600.54, 0.131874
1601.04, 0.132119
1601.53, 0.131240
1602.03, 0.130946
1602.52, 0.131435
1603.02, 0.130995
1603.51, 0.131581
1604.01, 0.132412
1604.5, 0.131874
1605.0, 0.130751
1605.5, 0.129921
1606.0, 0.130605
1606.49, 0.132705
1606.99, 0.133193
1607.49, 0.133926
1607.99, 0.133047
1608.49, 0.131484
1608.99, 0.131240
1609.49, 0.130800
1609.99, 0.130018
1610.49, 0.131288
1610.99, 0.133828
1611.49, 0.134365
1611.99, 0.134121
1612.49, 0.133535
1612.99, 0.132070
1613.49, 0.132802
1614.0, 0.133633
1614.5, 0.132949
1615.0, 0.132314
1615.51, 0.132802
1616.01, 0.132705
1616.51, 0.131826
1617.02, 0.132412
1617.52, 0.133535
1618.03, 0.134219
1618.53, 0.134463
1619.04, 0.133633
1619.54, 0.134805
1620.05, 0.135098
1620.55, 0.134610
1621.06, 0.134805
1621.57, 0.134561
1622.08, 0.135489
1622.58, 0.135147
1623.09, 0.133535
1623.6, 0.135782
1624.11, 0.136173
1624.62, 0.134658
1625.13, 0.135635
1625.64, 0.136368
1626.15, 0.135391
1626.66, 0.134512
1627.17, 0.135342
1627.68, 0.136612
1628.19, 0.136270
1628.7, 0.136270
1629.21, 0.136710
1629.72, 0.136710
1630.24, 0.136612
1630.75, 0.136759
1631.26, 0.137052
1631.78, 0.136661
1632.29, 0.137101
1632.8, 0.137638
1633.32, 0.136466
1633.83, 0.136612
1634.35, 0.136954
1634.86, 0.137540
1635.38, 0.137589
1635.9, 0.137736
1636.41, 0.137589
1636.93, 0.138419
1637.45, 0.138517
1637.96, 0.138371
1638.48, 0.138859
1639.0, 0.138615
1639.52, 0.138859
1640.04, 0.138371
1640.56, 0.137784
1641.08, 0.138615
1641.59, 0.138615
1642.11, 0.138224
1642.63, 0.139250
1643.16, 0.139054
1643.68, 0.138810
1644.2, 0.139103
1644.72, 0.137980
1645.24, 0.136905
1645.76, 0.137491
1646.29, 0.139543
1646.81, 0.140910
1647.33, 0.140959
1647.86, 0.140373
1648.38, 0.140031
1648.9, 0.140324
1649.43, 0.140422
1649.95, 0.140129
1650.48, 0.140129
1651.0, 0.140568
1651.53, 0.140520
1652.06, 0.139201
1652.58, 0.139543
1653.11, 0.141496
1653.64, 0.141057
1654.17, 0.139982
1654.69, 0.140275
1655.22, 0.141545
1655.75, 0.142376
1656.28, 0.142864
1656.81, 0.142034
1657.34, 0.141838
1657.87, 0.142717
1658.4, 0.141692
1658.93, 0.140324
1659.46, 0.141057
1659.99, 0.142669
1660.52, 0.141838
1661.05, 0.140031
1661.59, 0.140227
1662.12, 0.141057
1662.65, 0.142229
1663.19, 0.143304
1663.72, 0.143548
1664.26, 0.143499
1664.79, 0.143206
1665.32, 0.143890
1665.86, 0.142815
1666.39, 0.141838
1666.93, 0.142083
1667.47, 0.142913
1668.0, 0.142962
1668.54, 0.142376
1669.08, 0.143743
1669.61, 0.146332
1670.15, 0.145111
1670.69, 0.142864
1671.23, 0.143743
1671.77, 0.144818
1672.31, 0.145062
1672.85, 0.145013
1673.39, 0.144036
1673.93, 0.143450
1674.47, 0.143645
1675.01, 0.144232
1675.55, 0.145501
1676.09, 0.146381
1676.64, 0.145404
1677.18, 0.145013
1677.72, 0.145160
1678.26, 0.145501
1678.81, 0.146332
1679.35, 0.146771
1679.89, 0.146039
1680.44, 0.146478
1680.98, 0.147406
1681.53, 0.146918
1682.07, 0.145306
1682.62, 0.144867
1683.17, 0.145795
1683.71, 0.147406
1684.26, 0.147211
1684.81, 0.146723
1685.36, 0.146136
1685.9, 0.146723
1686.45, 0.147211
1687.0, 0.146869
1687.55, 0.146918
1688.1, 0.147309
1688.65, 0.147748
1689.2, 0.147455
1689.75, 0.147602
1690.3, 0.148579
1690.85, 0.147358
1691.41, 0.147113
1691.96, 0.148041
1692.51, 0.148139
1693.06, 0.148334
1693.61, 0.147944
1694.17, 0.148530
1694.72, 0.149214
1695.28, 0.148920
1695.83, 0.148334
1696.39, 0.148774
1696.94, 0.149946
1697.5, 0.149848
1698.05, 0.148920
1698.61, 0.149311
1699.17, 0.150630
1699.72, 0.150923
1700.28, 0.151118
1700.84, 0.150483
1701.4, 0.149311
1701.95, 0.149067
1702.51, 0.149604
1703.07, 0.150435
1703.63, 0.150190
1704.19, 0.149702
1704.75, 0.150483
1705.31, 0.150825
1705.88, 0.150776
1706.44, 0.150190
1707.0, 0.150190
1707.56, 0.150630
1708.12, 0.149848
1708.69, 0.149848
1709.25, 0.150142
1709.81, 0.150532
1710.38, 0.151949
1710.94, 0.152388
1711.51, 0.151998
1712.07, 0.152046
1712.64, 0.151900
1713.2, 0.151998
1713.77, 0.151851
1714.34, 0.151753
1714.9, 0.151460
1715.47, 0.152144
1716.04, 0.152535
1716.61, 0.151900
1717.18, 0.151314
1717.74, 0.152388
1718.31, 0.153561
1718.88, 0.153756
1719.45, 0.153072
1720.02, 0.152632
1720.59, 0.153121
1721.17, 0.154049
1721.74, 0.154879
1722.31, 0.154000
1722.88, 0.153951
1723.45, 0.154049
1724.03, 0.154489
1724.6, 0.155319
1725.18, 0.155123
1725.75, 0.154440
1726.33, 0.154537
1726.9, 0.154977
1727.48, 0.154293
1728.05, 0.154098
1728.63, 0.153609
1729.2, 0.153414
1729.78, 0.153219
1730.36, 0.153365
1730.94, 0.153707
1731.51, 0.154440
1732.09, 0.155758
1732.67, 0.156051
1733.25, 0.155710
1733.83, 0.155514
1734.41, 0.155710
1734.99, 0.155954
1735.57, 0.155270
1736.15, 0.154830
1736.73, 0.155954
1737.32, 0.155710
1737.9, 0.155661
1738.48, 0.155856
1739.07, 0.156784
1739.65, 0.157517
1740.23, 0.157175
1740.82, 0.156442
1741.4, 0.155856
1741.99, 0.156589
1742.57, 0.156735
1743.16, 0.156735
1743.74, 0.156979
1744.33, 0.157614
1744.92, 0.157566
1745.51, 0.157810
1746.09, 0.156784
1746.68, 0.156100
1747.27, 0.156442
1747.86, 0.157273
1748.45, 0.158445
1749.04, 0.159129
1749.63, 0.158835
1750.22, 0.158542
1750.81, 0.158591
1751.4, 0.158054
1751.99, 0.158103
1752.59, 0.158787
1753.18, 0.159373
1753.77, 0.159470
1754.37, 0.158640
1754.96, 0.158640
1755.56, 0.159031
1756.15, 0.159031
1756.74, 0.159177
1757.34, 0.159031
1757.94, 0.159812
1758.53, 0.160301
1759.13, 0.160008
1759.73, 0.159080
1760.32, 0.158982
1760.92, 0.160691
1761.52, 0.161180
1762.12, 0.160252
1762.72, 0.160154
1763.32, 0.160057
1763.92, 0.160789
1764.52, 0.160594
1765.12, 0.160057
1765.72, 0.159959
1766.32, 0.160398
1766.92, 0.161180
1767.53, 0.161522
1768.13, 0.162059
1768.73, 0.162499
1769.34, 0.162889
1769.94, 0.162841
1770.55, 0.161717
1771.15, 0.162108
1771.76, 0.162352
1772.36, 0.162547
1772.97, 0.162694
1773.57, 0.162743
1774.18, 0.163085
1774.79, 0.163671
1775.4, 0.163378
1776.0, 0.162938
1776.61, 0.162303
1777.22, 0.162303
1777.83, 0.162841
1778.44, 0.164062
1779.05, 0.163622
1779.66, 0.163134
1780.27, 0.163134
1780.88, 0.163134
1781.5, 0.163036
1782.11, 0.163231
1782.72, 0.163769
1783.33, 0.164404
1783.95, 0.164404
1784.56, 0.164013
1785.18, 0.164404
1785.79, 0.164892
1786.41, 0.164941
1787.02, 0.165136
1787.64, 0.165380
1788.26, 0.165771
1788.87, 0.165625
1789.49, 0.165478
1790.11, 0.165283
1790.73, 0.165332
1791.35, 0.164941
1791.96, 0.165283
1792.58, 0.166015
1793.21, 0.166504
1793.83, 0.166260
1794.45, 0.166357
1795.07, 0.166601
1795.69, 0.166748
1796.31, 0.167041
1796.93, 0.166943
1797.56, 0.166455
1798.18, 0.166455
1798.8, 0.166699
1799.43, 0.167090
1800.05, 0.167090
1800.68, 0.167090
1801.3, 0.167334
1801.93, 0.167236
1802.56, 0.166601
1803.18, 0.166943
1803.81, 0.167334
1804.44, 0.167822
1805.07, 0.168213
1805.7, 0.168018
1806.33, 0.168116
1806.95, 0.168164
1807.58, 0.167969
1808.22, 0.168116
1808.85, 0.168457
1809.48, 0.168457
1810.11, 0.167774
1810.74, 0.168067
1811.38, 0.169044
1812.01, 0.169239
1812.64, 0.169532
1813.28, 0.169288
1813.91, 0.169190
1814.55, 0.169385
1815.18, 0.169630
1815.82, 0.170118
1816.45, 0.170216
1817.09, 0.170460
1817.73, 0.170411
1818.36, 0.170606
1819.0, 0.170265
1819.64, 0.169483
1820.28, 0.169239
1820.92, 0.169483
1821.56, 0.169776
1822.2, 0.170118
1822.84, 0.170265
1823.48, 0.170753
1824.12, 0.170753
1824.76, 0.170265
1825.41, 0.170460
1826.05, 0.170558
1826.69, 0.170704
1827.34, 0.171388
1827.98, 0.171388
1828.63, 0.171241
1829.27, 0.171193
1829.92, 0.170802
1830.56, 0.171241
1831.21, 0.171779
1831.86, 0.172023
1832.5, 0.171828
1833.15, 0.172218
1833.8, 0.172316
1834.45, 0.171974
1835.1, 0.171730
1835.75, 0.171241
1836.4, 0.171534
1837.05, 0.172609
1837.7, 0.172756
1838.35, 0.172804
1839.01, 0.172707
1839.66, 0.172902
1840.31, 0.173635
1840.96, 0.173586
1841.62, 0.172463
1842.27, 0.172707
1842.93, 0.173586
1843.58, 0.174025
1844.24, 0.174514
1844.9, 0.173879
1845.55, 0.173635
1846.21, 0.174221
1846.87, 0.174025
1847.53, 0.173732
1848.18, 0.173977
1848.84, 0.175100
1849.5, 0.175002
1850.16, 0.174319
1850.82, 0.174319
1851.48, 0.174514
1852.14, 0.174807
1852.81, 0.174758
1853.47, 0.174514
1854.13, 0.174612
1854.8, 0.175295
1855.46, 0.175637
1856.12, 0.175540
1856.79, 0.175344
1857.45, 0.175247
1858.12, 0.176272
1858.79, 0.176516
1859.45, 0.175784
1860.12, 0.176370
1860.79, 0.176956
1861.46, 0.176663
1862.12, 0.176272
1862.79, 0.176761
1863.46, 0.176907
1864.13, 0.176712
1864.8, 0.176712
1865.48, 0.177249
1866.15, 0.177005
1866.82, 0.176468
1867.49, 0.176614
1868.16, 0.177103
1868.84, 0.177347
1869.51, 0.177542
1870.19, 0.177347
1870.86, 0.177298
1871.54, 0.177884
1872.21, 0.177298
1872.89, 0.176614
1873.56, 0.177103
1874.24, 0.178031
1874.92, 0.178714
1875.6, 0.178763
1876.28, 0.178226
1876.96, 0.178079
1877.64, 0.178714
1878.32, 0.178763
1879.0, 0.179007
1879.68, 0.179349
1880.36, 0.179545
1881.04, 0.179154
1881.73, 0.178763
1882.41, 0.178421
1883.09, 0.178665
1883.78, 0.179252
1884.46, 0.179984
1885.15, 0.179545
1885.83, 0.179105
1886.52, 0.179593
1887.21, 0.180082
1887.89, 0.180375
1888.58, 0.180815
1889.27, 0.180570
1889.96, 0.179789
1890.65, 0.179887
1891.34, 0.180570
1892.03, 0.180863
1892.72, 0.180961
1893.41, 0.181010
1894.1, 0.181010
1894.79, 0.181059
1895.49, 0.181205
1896.18, 0.180961
1896.87, 0.180912
1897.57, 0.181645
1898.26, 0.181791
1898.96, 0.181303
1899.65, 0.180668
1900.35, 0.181010
1901.05, 0.181352
1901.74, 0.181840
1902.44, 0.181987
1903.14, 0.181840
1903.84, 0.181791
1904.54, 0.181791
1905.24, 0.181401
1905.94, 0.181645
1906.64, 0.182133
1907.34, 0.182622
1908.04, 0.183159
1908.75, 0.183208
1909.45, 0.183354
1910.15, 0.183745
1910.86, 0.183599
1911.56, 0.183403
1912.27, 0.183647
1912.97, 0.183452
1913.68, 0.183550
1914.39, 0.183794
1915.09, 0.183696
1915.8, 0.183843
1916.51, 0.184331
1917.22, 0.185259
1917.93, 0.185601
1918.64, 0.184722
1919.35, 0.183696
1920.06, 0.183501
1920.77, 0.184136
1921.48, 0.185210
1922.19, 0.185796
1922.91, 0.185503
1923.62, 0.184868
1924.33, 0.185113
1925.05, 0.185552
1925.76, 0.185601
1926.48, 0.185601
1927.19, 0.185503
1927.91, 0.185503
1928.63, 0.186090
1929.35, 0.186236
1930.07, 0.185992
1930.78, 0.185699
1931.5, 0.186041
1932.22, 0.187018
1932.94, 0.186822
1933.66, 0.186480
1934.39, 0.186969
1935.11, 0.187262
1935.83, 0.187115
1936.55, 0.187018
1937.28, 0.187408
1938.0, 0.187604
1938.73, 0.187799
1939.45, 0.187897
1940.18, 0.187408
1940.9, 0.187799
1941.63, 0.188141
1942.36, 0.187994
1943.09, 0.187848
1943.81, 0.187848
1944.54, 0.187897
1945.27, 0.188336
1946.0, 0.188385
1946.73, 0.188239
1947.47, 0.188287
1948.2, 0.188825
1948.93, 0.189411
1949.66, 0.189264
1950.4, 0.189508
1951.13, 0.189411
1951.86, 0.189118
1952.6, 0.189264
1953.34, 0.189215
1954.07, 0.189069
1954.81, 0.189411
1955.55, 0.189899
1956.29, 0.190290
1957.02, 0.190681
1957.76, 0.190681
1958.5, 0.190192
1959.24, 0.190339
1959.98, 0.190681
1960.72, 0.190534
1961.47, 0.190583
1962.21, 0.190632
1962.95, 0.190974
1963.7, 0.190974
1964.44, 0.190827
1965.18, 0.190974
1965.93, 0.191218
1966.67, 0.191413
1967.42, 0.191023
1968.17, 0.191071
1968.92, 0.191951
1969.66, 0.191999
1970.41, 0.191755
1971.16, 0.191853
1971.91, 0.192048
1972.66, 0.191999
1973.41, 0.192048
1974.16, 0.192488
1974.92, 0.192439
1975.67, 0.192146
1976.42, 0.192439
1977.18, 0.192732
1977.93, 0.192732
1978.69, 0.192879
1979.44, 0.192439
1980.2, 0.192390
1980.95, 0.192537
1981.71, 0.192830
1982.47, 0.193123
1983.23, 0.193074
1983.99, 0.193025
1984.74, 0.192830
1985.51, 0.193221
1986.27, 0.193758
1987.03, 0.193855
1987.79, 0.193807
1988.55, 0.193953
1989.32, 0.193660
1990.08, 0.193660
1990.84, 0.194149
1991.61, 0.194393
1992.37, 0.194149
1993.14, 0.194197
1993.9, 0.194539
1994.67, 0.194979
1995.44, 0.194735
1996.21, 0.195077
1996.98, 0.195321
1997.75, 0.195125
1998.52, 0.195174
1999.29, 0.195418
2000.06, 0.195174
2000.83, 0.195272
2001.6, 0.195467
2002.38, 0.195565
2003.15, 0.195565
2003.93, 0.195711
2004.7, 0.195711
2005.48, 0.195956
2006.25, 0.196346
2007.03, 0.196005
2007.81, 0.195711
2008.58, 0.196151
2009.36, 0.196151
2010.14, 0.196249
2010.92, 0.196493
2011.7, 0.196591
2012.48, 0.196786
2013.26, 0.196786
2014.05, 0.196591
2014.83, 0.196786
2015.61, 0.196884
2016.4, 0.196884
2017.18, 0.197421
2017.97, 0.197812
2018.75, 0.197958
2019.54, 0.197958
2020.32, 0.197958
2021.11, 0.198105
2021.9, 0.197958
2022.69, 0.197909
2023.48, 0.198154
2024.27, 0.198349
2025.06, 0.198544
2025.85, 0.198544
2026.64, 0.198691
2027.44, 0.199130
2028.23, 0.199277
2029.02, 0.199130
2029.82, 0.198886
2030.61, 0.199033
2031.41, 0.199472
2032.2, 0.199717
2033.0, 0.199570
2033.8, 0.199521
2034.6, 0.199717
2035.4, 0.199521
2036.2, 0.199375
2037.0, 0.199570
2037.8, 0.199863
2038.6, 0.199912
2039.4, 0.200352
2040.2, 0.200498
2041.01, 0.200254
2041.81, 0.200010
2042.61, 0.200303
2043.42, 0.200352
2044.22, 0.200596
2045.03, 0.200840
2045.84, 0.201035
2046.65, 0.201426
2047.46, 0.201377
2048.26, 0.201182
2049.07, 0.200889
2049.88, 0.201133
2050.69, 0.201328
2051.51, 0.201426
2052.32, 0.201621
2053.13, 0.201719
2053.94, 0.201768
2054.76, 0.201914
2055.57, 0.202061
2056.39, 0.202354
2057.2, 0.202598
2058.02, 0.202452
2058.84, 0.202549
2059.66, 0.202891
2060.48, 0.203184
2061.29, 0.203233
2062.11, 0.203575
2062.94, 0.204210
2063.76, 0.203722
2064.58, 0.202989
2065.4, 0.203429
2066.22, 0.204112
2067.05, 0.204308
2067.87, 0.204161
2068.7, 0.203966
2069.52, 0.204064
2070.35, 0.204161
2071.18, 0.203917
2072.0, 0.203722
2072.83, 0.203819
2073.66, 0.204210
2074.49, 0.204894
2075.32, 0.205138
2076.15, 0.205187
2076.98, 0.205431
2077.82, 0.205138
2078.65, 0.205236
2079.48, 0.205480
2080.32, 0.205968
2081.15, 0.205871
2081.99, 0.205724
2082.83, 0.206115
2083.66, 0.206261
2084.5, 0.206213
2085.34, 0.206310
2086.18, 0.206359
2087.02, 0.206213
2087.86, 0.206213
2088.7, 0.206457
2089.54, 0.206750
2090.39, 0.206652
2091.23, 0.206506
2092.07, 0.206506
2092.92, 0.206555
2093.76, 0.206603
2094.61, 0.206848
2095.45, 0.207092
2096.3, 0.207141
2097.15, 0.207141
2098.0, 0.207287
2098.85, 0.207189
2099.7, 0.207434
2100.55, 0.207873
2101.4, 0.207873
2102.25, 0.207971
2103.1, 0.208020
2103.96, 0.208020
2104.81, 0.207971
2105.67, 0.208117
2106.52, 0.208264
2107.38, 0.208313
2108.24, 0.208508
2109.09, 0.208752
2109.95, 0.208850
2110.81, 0.209094
2111.67, 0.209094
2112.53, 0.208752
2113.39, 0.209045
2114.25, 0.209290
2115.12, 0.209290
2115.98, 0.209583
2116.84, 0.209241
2117.71, 0.208948
2118.58, 0.209387
2119.44, 0.209583
2120.31, 0.210071
2121.18, 0.210169
2122.04, 0.209925
2122.91, 0.209778
2123.78, 0.210169
2124.65, 0.210315
2125.52, 0.210267
2126.4, 0.210169
2127.27, 0.210267
2128.14, 0.210364
2129.02, 0.210804
2129.89, 0.211048
2130.77, 0.210999
2131.64, 0.210853
2132.52, 0.210853
2133.4, 0.211195
2134.27, 0.211390
2135.15, 0.211536
2136.03, 0.211683
2136.91, 0.211976
2137.79, 0.211732
2138.68, 0.211488
2139.56, 0.211341
2140.44, 0.211781
2141.33, 0.212123
2142.21, 0.211732
2143.1, 0.212074
2143.99, 0.212513
2144.87, 0.212806
2145.76, 0.212757
2146.65, 0.212709
2147.54, 0.213002
2148.43, 0.212953
2149.32, 0.212806
2150.21, 0.213051
2151.1, 0.213197
2151.99, 0.213344
2152.89, 0.213441
2153.78, 0.213197
2154.68, 0.213148
2155.57, 0.213344
2156.47, 0.213588
2157.37, 0.214027
2158.27, 0.214076
2159.16, 0.214223
2160.06, 0.214369
2160.96, 0.214418
2161.86, 0.214369
2162.77, 0.214174
2163.67, 0.214076
2164.57, 0.214369
2165.48, 0.214858
2166.38, 0.215151
2167.29, 0.215248
2168.2, 0.215053
2169.1, 0.214809
2170.01, 0.214711
2170.92, 0.214711
2171.83, 0.215102
2172.74, 0.215395
2173.65, 0.215248
2174.56, 0.215346
2175.47, 0.215444
2176.39, 0.215493
2177.3, 0.215835
2178.22, 0.215883
2179.13, 0.216079
2180.05, 0.216030
2180.96, 0.215786
2181.88, 0.216079
2182.8, 0.216665
2183.72, 0.216518
2184.64, 0.216323
2185.56, 0.216176
2186.48, 0.216225
2187.41, 0.216225
2188.33, 0.216225
2189.25, 0.216470
2190.18, 0.216714
2191.1, 0.216860
2192.03, 0.217056
2192.96, 0.217104
2193.89, 0.217056
2194.82, 0.217202
2195.74, 0.217056
2196.68, 0.217056
2197.61, 0.217446
2198.54, 0.217495
2199.47, 0.217398
2200.4, 0.217544
2201.34, 0.217642
2202.28, 0.217446
2203.21, 0.217739
2204.15, 0.218032
2205.08, 0.218130
2206.02, 0.217935
2206.96, 0.218081
2207.9, 0.218179
2208.84, 0.218032
2209.78, 0.217837
2210.73, 0.217984
2211.67, 0.218423
2212.61, 0.218423
2213.56, 0.218326
2214.5, 0.218521
2215.45, 0.218521
2216.4, 0.218619
2217.35, 0.218863
2218.3, 0.219009
2219.24, 0.218912
2220.2, 0.219058
2221.15, 0.219058
2222.1, 0.218960
2223.05, 0.219254
2224.0, 0.219693
2224.96, 0.219449
2225.91, 0.219400
2226.87, 0.219644
2227.83, 0.219644
2228.79, 0.219644
2229.74, 0.219449
2230.7, 0.219595
2231.66, 0.220084
2232.63, 0.220279
2233.59, 0.220182
2234.55, 0.219986
2235.51, 0.220279
2236.48, 0.220475
2237.44, 0.220230
2238.41, 0.220182
2239.38, 0.220523
2240.34, 0.220865
2241.31, 0.220865
2242.28, 0.220914
2243.25, 0.220621
2244.22, 0.220328
2245.19, 0.220523
2246.17, 0.220914
2247.14, 0.220865
2248.12, 0.220963
2249.09, 0.221012
2250.07, 0.220963
2251.04, 0.221256
2252.02, 0.221500
2253.0, 0.221354
2253.98, 0.221549
2254.96, 0.221500
2255.94, 0.221451
2256.92, 0.221451
2257.91, 0.221403
2258.89, 0.221012
2259.88, 0.221061
2260.86, 0.221500
2261.85, 0.221793
2262.83, 0.221842
2263.82, 0.221598
2264.81, 0.221549
2265.8, 0.221744
2266.79, 0.222038
2267.78, 0.222086
2268.78, 0.221989
2269.77, 0.221989
2270.76, 0.221940
2271.76, 0.221891
2272.75, 0.221793
2273.75, 0.221940
2274.75, 0.221744
2275.75, 0.221940
2276.75, 0.222379
2277.75, 0.222477
2278.75, 0.222282
2279.75, 0.222184
2280.75, 0.222282
2281.76, 0.222379
2282.76, 0.222477
2283.77, 0.222575
2284.77, 0.222428
2285.78, 0.222575
2286.79, 0.222917
2287.8, 0.222868
2288.81, 0.222721
2289.82, 0.222526
2290.83, 0.222379
2291.84, 0.222379
2292.86, 0.222184
2293.87, 0.222282
2294.89, 0.222477
2295.91, 0.222428
2296.92, 0.222575
2297.94, 0.222526
2298.96, 0.222428
2299.98, 0.222379
2301.0, 0.222331
2302.02, 0.222379
2303.04, 0.222526
2304.07, 0.222331
2305.09, 0.222086
2306.12, 0.221696
2307.15, 0.221451
2308.17, 0.221110
2309.2, 0.221110
2310.23, 0.221256
2311.26, 0.221256
2312.29, 0.221012
