Database of Origin, USGS Spectral Database
Sample Description, See USGS database for additional info
Date Added,2017-07-03 06:06:55.661530

Data ID,USGS_hem18          
Sample ID, hematite_hs45.9733
Mineral Name, hematite
Material Class,Oxide

Wavelength
1499.61, 0.109666
1500.04, 0.109560
1500.48, 0.109347
1500.91, 0.108867
1501.35, 0.108441
1501.78, 0.108441
1502.22, 0.108441
1502.65, 0.108122
1503.09, 0.107855
1503.53, 0.107749
1503.96, 0.107909
1504.4, 0.108441
1504.83, 0.108494
1505.27, 0.108281
1505.71, 0.107962
1506.15, 0.107269
1506.58, 0.107163
1507.02, 0.107323
1507.46, 0.107376
1507.9, 0.107429
1508.34, 0.107323
1508.78, 0.106630
1509.21, 0.106151
1509.66, 0.106683
1510.09, 0.106790
1510.53, 0.106683
1510.97, 0.106630
1511.42, 0.106577
1511.86, 0.106311
1512.3, 0.105938
1512.74, 0.106151
1513.18, 0.106151
1513.62, 0.106311
1514.06, 0.106204
1514.51, 0.106098
1514.95, 0.105778
1515.39, 0.105299
1515.83, 0.105618
1516.28, 0.105672
1516.72, 0.105512
1517.16, 0.105512
1517.61, 0.105672
1518.05, 0.105458
1518.5, 0.105245
1518.94, 0.105352
1519.39, 0.105618
1519.83, 0.105405
1520.28, 0.105352
1520.73, 0.105299
1521.17, 0.104926
1521.62, 0.104713
1522.07, 0.104873
1522.51, 0.105086
1522.96, 0.104926
1523.41, 0.104660
1523.85, 0.105086
1524.3, 0.104979
1524.75, 0.104819
1525.2, 0.104873
1525.65, 0.104446
1526.1, 0.104180
1526.55, 0.104446
1527.0, 0.104979
1527.45, 0.105299
1527.9, 0.105245
1528.35, 0.104979
1528.8, 0.104819
1529.25, 0.104873
1529.7, 0.104660
1530.15, 0.104500
1530.6, 0.104553
1531.05, 0.104713
1531.51, 0.104873
1531.96, 0.105032
1532.41, 0.104713
1532.87, 0.104340
1533.32, 0.104020
1533.77, 0.103807
1534.23, 0.104074
1534.68, 0.104606
1535.14, 0.104500
1535.59, 0.104500
1536.05, 0.104127
1536.5, 0.103861
1536.96, 0.104074
1537.41, 0.104180
1537.87, 0.104553
1538.32, 0.104660
1538.78, 0.104287
1539.24, 0.104074
1539.7, 0.104180
1540.15, 0.103861
1540.61, 0.104020
1541.07, 0.104606
1541.53, 0.104500
1541.98, 0.104180
1542.44, 0.104340
1542.9, 0.104340
1543.36, 0.104446
1543.82, 0.104553
1544.28, 0.104287
1544.74, 0.104340
1545.2, 0.104819
1545.66, 0.104873
1546.12, 0.104606
1546.59, 0.104713
1547.05, 0.104553
1547.51, 0.104287
1547.97, 0.104340
1548.43, 0.104553
1548.9, 0.104446
1549.36, 0.104340
1549.82, 0.104393
1550.29, 0.104393
1550.75, 0.104606
1551.21, 0.104606
1551.68, 0.104713
1552.14, 0.104713
1552.61, 0.104713
1553.07, 0.105086
1553.54, 0.104873
1554.0, 0.104553
1554.47, 0.104713
1554.93, 0.104660
1555.4, 0.104500
1555.87, 0.104500
1556.34, 0.104553
1556.8, 0.104819
1557.27, 0.105086
1557.74, 0.105086
1558.21, 0.104819
1558.68, 0.104660
1559.14, 0.104500
1559.61, 0.104127
1560.08, 0.104553
1560.55, 0.104873
1561.02, 0.104979
1561.49, 0.105032
1561.96, 0.104926
1562.43, 0.104766
1562.9, 0.104660
1563.38, 0.104873
1563.85, 0.105245
1564.32, 0.105299
1564.79, 0.105032
1565.26, 0.104926
1565.74, 0.104553
1566.21, 0.104606
1566.68, 0.104873
1567.16, 0.105299
1567.63, 0.105245
1568.1, 0.105086
1568.58, 0.105086
1569.05, 0.105192
1569.53, 0.105192
1570.0, 0.105299
1570.48, 0.105618
1570.96, 0.105778
1571.43, 0.105512
1571.91, 0.105139
1572.39, 0.105192
1572.86, 0.105245
1573.34, 0.105352
1573.82, 0.105512
1574.3, 0.105512
1574.77, 0.105405
1575.25, 0.105458
1575.73, 0.105831
1576.21, 0.105565
1576.69, 0.105512
1577.17, 0.105831
1577.65, 0.105885
1578.13, 0.105725
1578.61, 0.105565
1579.09, 0.105672
1579.57, 0.105618
1580.05, 0.105778
1580.54, 0.106098
1581.02, 0.106204
1581.5, 0.106098
1581.98, 0.106257
1582.47, 0.106311
1582.95, 0.106098
1583.43, 0.106098
1583.92, 0.106257
1584.4, 0.106257
1584.88, 0.106098
1585.37, 0.106044
1585.85, 0.106364
1586.34, 0.106470
1586.82, 0.106257
1587.31, 0.106364
1587.8, 0.106470
1588.28, 0.106417
1588.77, 0.106790
1589.26, 0.106790
1589.74, 0.106683
1590.23, 0.106683
1590.72, 0.106683
1591.21, 0.106737
1591.7, 0.106630
1592.19, 0.106630
1592.67, 0.106897
1593.16, 0.107003
1593.65, 0.106843
1594.14, 0.107003
1594.63, 0.107163
1595.12, 0.107056
1595.61, 0.107110
1596.11, 0.107056
1596.6, 0.107163
1597.09, 0.107269
1597.58, 0.107163
1598.08, 0.107269
1598.57, 0.107163
1599.06, 0.106897
1599.55, 0.107056
1600.05, 0.107269
1600.54, 0.107376
1601.04, 0.107216
1601.53, 0.107163
1602.03, 0.107429
1602.52, 0.107802
1603.02, 0.107642
1603.51, 0.107429
1604.01, 0.107642
1604.5, 0.107695
1605.0, 0.107802
1605.5, 0.107749
1606.0, 0.107589
1606.49, 0.107749
1606.99, 0.107589
1607.49, 0.107589
1607.99, 0.108015
1608.49, 0.108281
1608.99, 0.108122
1609.49, 0.108281
1609.99, 0.108494
1610.49, 0.108228
1610.99, 0.108122
1611.49, 0.108175
1611.99, 0.108122
1612.49, 0.108068
1612.99, 0.108228
1613.49, 0.108761
1614.0, 0.108974
1614.5, 0.108601
1615.0, 0.108228
1615.51, 0.108228
1616.01, 0.108494
1616.51, 0.108441
1617.02, 0.108441
1617.52, 0.108548
1618.03, 0.108548
1618.53, 0.108441
1619.04, 0.108548
1619.54, 0.108601
1620.05, 0.108761
1620.55, 0.108707
1621.06, 0.108707
1621.57, 0.108974
1622.08, 0.109187
1622.58, 0.109134
1623.09, 0.108814
1623.6, 0.108761
1624.11, 0.109134
1624.62, 0.109293
1625.13, 0.109134
1625.64, 0.108867
1626.15, 0.109027
1626.66, 0.109240
1627.17, 0.109240
1627.68, 0.109240
1628.19, 0.109347
1628.7, 0.109347
1629.21, 0.109027
1629.72, 0.108867
1630.24, 0.109187
1630.75, 0.109453
1631.26, 0.109666
1631.78, 0.109666
1632.29, 0.109187
1632.8, 0.109400
1633.32, 0.109826
1633.83, 0.109826
1634.35, 0.109932
1634.86, 0.109932
1635.38, 0.109986
1635.9, 0.109826
1636.41, 0.109666
1636.93, 0.109719
1637.45, 0.109666
1637.96, 0.109613
1638.48, 0.109666
1639.0, 0.109666
1639.52, 0.109773
1640.04, 0.109879
1640.56, 0.110092
1641.08, 0.110252
1641.59, 0.110199
1642.11, 0.110252
1642.63, 0.110199
1643.16, 0.110146
1643.68, 0.110252
1644.2, 0.110359
1644.72, 0.110359
1645.24, 0.110199
1645.76, 0.110305
1646.29, 0.110359
1646.81, 0.110465
1647.33, 0.110518
1647.86, 0.110572
1648.38, 0.110731
1648.9, 0.110678
1649.43, 0.110412
1649.95, 0.110465
1650.48, 0.110572
1651.0, 0.110572
1651.53, 0.110678
1652.06, 0.110838
1652.58, 0.110944
1653.11, 0.110891
1653.64, 0.110731
1654.17, 0.110625
1654.69, 0.110625
1655.22, 0.110731
1655.75, 0.110944
1656.28, 0.111104
1656.81, 0.111317
1657.34, 0.111424
1657.87, 0.111477
1658.4, 0.111264
1658.93, 0.111211
1659.46, 0.111264
1659.99, 0.111211
1660.52, 0.110891
1661.05, 0.110891
1661.59, 0.111157
1662.12, 0.111104
1662.65, 0.111104
1663.19, 0.111371
1663.72, 0.111637
1664.26, 0.111584
1664.79, 0.111264
1665.32, 0.111424
1665.86, 0.111637
1666.39, 0.111690
1666.93, 0.111850
1667.47, 0.111903
1668.0, 0.111690
1668.54, 0.111637
1669.08, 0.111743
1669.61, 0.112063
1670.15, 0.112063
1670.69, 0.111956
1671.23, 0.112063
1671.77, 0.112169
1672.31, 0.112063
1672.85, 0.111850
1673.39, 0.112116
1673.93, 0.112329
1674.47, 0.112383
1675.01, 0.112276
1675.55, 0.112116
1676.09, 0.112223
1676.64, 0.112329
1677.18, 0.112436
1677.72, 0.112329
1678.26, 0.112063
1678.81, 0.112169
1679.35, 0.112542
1679.89, 0.112809
1680.44, 0.112809
1680.98, 0.112596
1681.53, 0.112329
1682.07, 0.112223
1682.62, 0.112383
1683.17, 0.112596
1683.71, 0.112755
1684.26, 0.112755
1684.81, 0.112542
1685.36, 0.112542
1685.9, 0.112649
1686.45, 0.112755
1687.0, 0.112809
1687.55, 0.112862
1688.1, 0.113075
1688.65, 0.112968
1689.2, 0.112755
1689.75, 0.113022
1690.3, 0.113394
1690.85, 0.113128
1691.41, 0.112968
1691.96, 0.113181
1692.51, 0.113128
1693.06, 0.113235
1693.61, 0.113341
1694.17, 0.113394
1694.72, 0.113448
1695.28, 0.113448
1695.83, 0.113394
1696.39, 0.113554
1696.94, 0.113501
1697.5, 0.113394
1698.05, 0.113341
1698.61, 0.113288
1699.17, 0.113448
1699.72, 0.113448
1700.28, 0.113394
1700.84, 0.113554
1701.4, 0.113608
1701.95, 0.113608
1702.51, 0.113554
1703.07, 0.113501
1703.63, 0.113714
1704.19, 0.113874
1704.75, 0.113714
1705.31, 0.113767
1705.88, 0.113661
1706.44, 0.113608
1707.0, 0.113927
1707.56, 0.113927
1708.12, 0.113874
1708.69, 0.114087
1709.25, 0.114087
1709.81, 0.114140
1710.38, 0.114034
1710.94, 0.113874
1711.51, 0.113874
1712.07, 0.113927
1712.64, 0.114087
1713.2, 0.114140
1713.77, 0.114140
1714.34, 0.114034
1714.9, 0.114087
1715.47, 0.114193
1716.04, 0.114193
1716.61, 0.114193
1717.18, 0.114087
1717.74, 0.114193
1718.31, 0.114193
1718.88, 0.114193
1719.45, 0.114406
1720.02, 0.114406
1720.59, 0.114300
1721.17, 0.114353
1721.74, 0.114513
1722.31, 0.114460
1722.88, 0.114406
1723.45, 0.114460
1724.03, 0.114513
1724.6, 0.114566
1725.18, 0.114620
1725.75, 0.114779
1726.33, 0.114939
1726.9, 0.114992
1727.48, 0.114992
1728.05, 0.114779
1728.63, 0.114620
1729.2, 0.114726
1729.78, 0.114939
1730.36, 0.114886
1730.94, 0.114779
1731.51, 0.114779
1732.09, 0.114886
1732.67, 0.114779
1733.25, 0.114673
1733.83, 0.114673
1734.41, 0.114833
1734.99, 0.115046
1735.57, 0.115152
1736.15, 0.115046
1736.73, 0.114833
1737.32, 0.114886
1737.9, 0.115099
1738.48, 0.115046
1739.07, 0.114886
1739.65, 0.115152
1740.23, 0.115312
1740.82, 0.115259
1741.4, 0.115152
1741.99, 0.115365
1742.57, 0.115578
1743.16, 0.115578
1743.74, 0.115365
1744.33, 0.115099
1744.92, 0.115312
1745.51, 0.115525
1746.09, 0.115685
1746.68, 0.115578
1747.27, 0.115525
1747.86, 0.115418
1748.45, 0.115578
1749.04, 0.115631
1749.63, 0.115578
1750.22, 0.115578
1750.81, 0.115845
1751.4, 0.115845
1751.99, 0.115898
1752.59, 0.115845
1753.18, 0.115738
1753.77, 0.115738
1754.37, 0.115898
1754.96, 0.115951
1755.56, 0.116004
1756.15, 0.116004
1756.74, 0.115951
1757.34, 0.116111
1757.94, 0.116111
1758.53, 0.116217
1759.13, 0.116377
1759.73, 0.116111
1760.32, 0.116217
1760.92, 0.116377
1761.52, 0.116111
1762.12, 0.115951
1762.72, 0.116271
1763.32, 0.116484
1763.92, 0.116484
1764.52, 0.116484
1765.12, 0.116537
1765.72, 0.116643
1766.32, 0.116643
1766.92, 0.116750
1767.53, 0.116537
1768.13, 0.116271
1768.73, 0.116430
1769.34, 0.116803
1769.94, 0.117016
1770.55, 0.116857
1771.15, 0.116803
1771.76, 0.116963
1772.36, 0.117070
1772.97, 0.116963
1773.57, 0.116803
1774.18, 0.116910
1774.79, 0.117229
1775.4, 0.117176
1776.0, 0.117016
1776.61, 0.117123
1777.22, 0.117123
1777.83, 0.117070
1778.44, 0.117229
1779.05, 0.117176
1779.66, 0.117229
1780.27, 0.117389
1780.88, 0.117283
1781.5, 0.117123
1782.11, 0.117176
1782.72, 0.117123
1783.33, 0.117016
1783.95, 0.117229
1784.56, 0.117389
1785.18, 0.117389
1785.79, 0.117442
1786.41, 0.117442
1787.02, 0.117442
1787.64, 0.117496
1788.26, 0.117336
1788.87, 0.117336
1789.49, 0.117496
1790.11, 0.117496
1790.73, 0.117336
1791.35, 0.117389
1791.96, 0.117549
1792.58, 0.117655
1793.21, 0.117549
1793.83, 0.117496
1794.45, 0.117442
1795.07, 0.117336
1795.69, 0.117496
1796.31, 0.117655
1796.93, 0.117709
1797.56, 0.117762
1798.18, 0.117655
1798.8, 0.117496
1799.43, 0.117549
1800.05, 0.117496
1800.68, 0.117602
1801.3, 0.117815
1801.93, 0.117922
1802.56, 0.117868
1803.18, 0.117868
1803.81, 0.117815
1804.44, 0.117975
1805.07, 0.118082
1805.7, 0.117975
1806.33, 0.117868
1806.95, 0.117922
1807.58, 0.118135
1808.22, 0.118188
1808.85, 0.118082
1809.48, 0.118135
1810.11, 0.118028
1810.74, 0.118082
1811.38, 0.117922
1812.01, 0.117922
1812.64, 0.117975
1813.28, 0.118082
1813.91, 0.118188
1814.55, 0.118135
1815.18, 0.118135
1815.82, 0.118028
1816.45, 0.118028
1817.09, 0.118082
1817.73, 0.118188
1818.36, 0.118401
1819.0, 0.118454
1819.64, 0.118082
1820.28, 0.118028
1820.92, 0.118135
1821.56, 0.118135
1822.2, 0.118188
1822.84, 0.118454
1823.48, 0.118561
1824.12, 0.118508
1824.76, 0.118508
1825.41, 0.118401
1826.05, 0.117868
1826.69, 0.117975
1827.34, 0.118295
1827.98, 0.118348
1828.63, 0.118454
1829.27, 0.118508
1829.92, 0.118721
1830.56, 0.118880
1831.21, 0.118827
1831.86, 0.118880
1832.5, 0.118934
1833.15, 0.119147
1833.8, 0.119040
1834.45, 0.118721
1835.1, 0.118667
1835.75, 0.118561
1836.4, 0.118508
1837.05, 0.118614
1837.7, 0.118667
1838.35, 0.118987
1839.01, 0.119040
1839.66, 0.118827
1840.31, 0.118934
1840.96, 0.118880
1841.62, 0.118614
1842.27, 0.118987
1842.93, 0.119253
1843.58, 0.119307
1844.24, 0.119520
1844.9, 0.119573
1845.55, 0.119413
1846.21, 0.119094
1846.87, 0.118721
1847.53, 0.118667
1848.18, 0.118987
1848.84, 0.119413
1849.5, 0.119466
1850.16, 0.119573
1850.82, 0.119573
1851.48, 0.119733
1852.14, 0.119786
1852.81, 0.119573
1853.47, 0.119307
1854.13, 0.119466
1854.8, 0.119626
1855.46, 0.119626
1856.12, 0.119520
1856.79, 0.119679
1857.45, 0.120052
1858.12, 0.120105
1858.79, 0.119946
1859.45, 0.119626
1860.12, 0.119679
1860.79, 0.119839
1861.46, 0.120159
1862.12, 0.120105
1862.79, 0.119999
1863.46, 0.119892
1864.13, 0.120159
1864.8, 0.120265
1865.48, 0.120319
1866.15, 0.120319
1866.82, 0.120105
1867.49, 0.119946
1868.16, 0.120159
1868.84, 0.120265
1869.51, 0.120212
1870.19, 0.119839
1870.86, 0.119626
1871.54, 0.120159
1872.21, 0.120105
1872.89, 0.119892
1873.56, 0.120105
1874.24, 0.120052
1874.92, 0.120052
1875.6, 0.120212
1876.28, 0.120105
1876.96, 0.120052
1877.64, 0.120372
1878.32, 0.120532
1879.0, 0.120691
1879.68, 0.120745
1880.36, 0.120638
1881.04, 0.120638
1881.73, 0.120691
1882.41, 0.120638
1883.09, 0.120425
1883.78, 0.120319
1884.46, 0.120638
1885.15, 0.120691
1885.83, 0.120585
1886.52, 0.120638
1887.21, 0.120851
1887.89, 0.120851
1888.58, 0.120745
1889.27, 0.120585
1889.96, 0.120372
1890.65, 0.120585
1891.34, 0.120638
1892.03, 0.120798
1892.72, 0.120745
1893.41, 0.120478
1894.1, 0.120585
1894.79, 0.120851
1895.49, 0.120958
1896.18, 0.120958
1896.87, 0.120798
1897.57, 0.120585
1898.26, 0.120691
1898.96, 0.120532
1899.65, 0.120319
1900.35, 0.120585
1901.05, 0.120691
1901.74, 0.120585
1902.44, 0.120319
1903.14, 0.120372
1903.84, 0.120691
1904.54, 0.120638
1905.24, 0.120478
1905.94, 0.120425
1906.64, 0.120585
1907.34, 0.120904
1908.04, 0.120958
1908.75, 0.121117
1909.45, 0.121224
1910.15, 0.121064
1910.86, 0.120904
1911.56, 0.120904
1912.27, 0.121064
1912.97, 0.120851
1913.68, 0.120904
1914.39, 0.121224
1915.09, 0.121330
1915.8, 0.121277
1916.51, 0.121171
1917.22, 0.121171
1917.93, 0.121171
1918.64, 0.121224
1919.35, 0.121011
1920.06, 0.120638
1920.77, 0.120851
1921.48, 0.121277
1922.19, 0.121384
1922.91, 0.121437
1923.62, 0.121384
1924.33, 0.121437
1925.05, 0.121703
1925.76, 0.121703
1926.48, 0.121544
1927.19, 0.121597
1927.91, 0.121650
1928.63, 0.121757
1929.35, 0.121810
1930.07, 0.121810
1930.78, 0.121863
1931.5, 0.121703
1932.22, 0.121757
1932.94, 0.121863
1933.66, 0.121863
1934.39, 0.121757
1935.11, 0.121863
1935.83, 0.121970
1936.55, 0.121970
1937.28, 0.122076
1938.0, 0.122129
1938.73, 0.122023
1939.45, 0.122023
1940.18, 0.122342
1940.9, 0.122289
1941.63, 0.122289
1942.36, 0.122289
1943.09, 0.122129
1943.81, 0.122183
1944.54, 0.122236
1945.27, 0.122289
1946.0, 0.122183
1946.73, 0.122129
1947.47, 0.122449
1948.2, 0.122769
1948.93, 0.122609
1949.66, 0.122449
1950.4, 0.122502
1951.13, 0.122609
1951.86, 0.122769
1952.6, 0.122822
1953.34, 0.122769
1954.07, 0.122822
1954.81, 0.122875
1955.55, 0.122822
1956.29, 0.122769
1957.02, 0.122822
1957.76, 0.122822
1958.5, 0.122822
1959.24, 0.122875
1959.98, 0.123035
1960.72, 0.123141
1961.47, 0.123088
1962.21, 0.123088
1962.95, 0.123088
1963.7, 0.123088
1964.44, 0.123088
1965.18, 0.123248
1965.93, 0.123354
1966.67, 0.123195
1967.42, 0.123195
1968.17, 0.123301
1968.92, 0.123248
1969.66, 0.123195
1970.41, 0.123248
1971.16, 0.123354
1971.91, 0.123408
1972.66, 0.123408
1973.41, 0.123461
1974.16, 0.123408
1974.92, 0.123408
1975.67, 0.123461
1976.42, 0.123461
1977.18, 0.123461
1977.93, 0.123354
1978.69, 0.123408
1979.44, 0.123408
1980.2, 0.123514
1980.95, 0.123567
1981.71, 0.123461
1982.47, 0.123461
1983.23, 0.123514
1983.99, 0.123408
1984.74, 0.123354
1985.51, 0.123461
1986.27, 0.123514
1987.03, 0.123514
1987.79, 0.123621
1988.55, 0.123674
1989.32, 0.123514
1990.08, 0.123461
1990.84, 0.123461
1991.61, 0.123621
1992.37, 0.123621
1993.14, 0.123514
1993.9, 0.123514
1994.67, 0.123567
1995.44, 0.123621
1996.21, 0.123514
1996.98, 0.123514
1997.75, 0.123567
1998.52, 0.123727
1999.29, 0.123781
2000.06, 0.123940
2000.83, 0.123940
2001.6, 0.123674
2002.38, 0.123567
2003.15, 0.123621
2003.93, 0.123781
2004.7, 0.123887
2005.48, 0.123727
2006.25, 0.123781
2007.03, 0.123887
2007.81, 0.123834
2008.58, 0.123727
2009.36, 0.123727
2010.14, 0.123621
2010.92, 0.123781
2011.7, 0.123887
2012.48, 0.123940
2013.26, 0.123994
2014.05, 0.123994
2014.83, 0.123940
2015.61, 0.123887
2016.4, 0.123887
2017.18, 0.123940
2017.97, 0.123940
2018.75, 0.123994
2019.54, 0.124047
2020.32, 0.124153
2021.11, 0.124207
2021.9, 0.124153
2022.69, 0.124153
2023.48, 0.124100
2024.27, 0.124047
2025.06, 0.124100
2025.85, 0.124100
2026.64, 0.124153
2027.44, 0.124366
2028.23, 0.124366
2029.02, 0.124313
2029.82, 0.124313
2030.61, 0.124260
2031.41, 0.124260
2032.2, 0.124420
2033.0, 0.124473
2033.8, 0.124526
2034.6, 0.124526
2035.4, 0.124420
2036.2, 0.124420
2037.0, 0.124366
2037.8, 0.124473
2038.6, 0.124686
2039.4, 0.124686
2040.2, 0.124633
2041.01, 0.124793
2041.81, 0.124952
2042.61, 0.124899
2043.42, 0.124952
2044.22, 0.125165
2045.03, 0.125325
2045.84, 0.125272
2046.65, 0.125059
2047.46, 0.125006
2048.26, 0.125112
2049.07, 0.125112
2049.88, 0.125112
2050.69, 0.125219
2051.51, 0.125272
2052.32, 0.125325
2053.13, 0.125378
2053.94, 0.125432
2054.76, 0.125432
2055.57, 0.125378
2056.39, 0.125432
2057.2, 0.125378
2058.02, 0.125325
2058.84, 0.125378
2059.66, 0.125538
2060.48, 0.125645
2061.29, 0.125591
2062.11, 0.125485
2062.94, 0.125538
2063.76, 0.125591
2064.58, 0.125538
2065.4, 0.125538
2066.22, 0.125485
2067.05, 0.125538
2067.87, 0.125645
2068.7, 0.125751
2069.52, 0.125804
2070.35, 0.125804
2071.18, 0.125698
2072.0, 0.125645
2072.83, 0.125645
2073.66, 0.125751
2074.49, 0.125751
2075.32, 0.125751
2076.15, 0.125751
2076.98, 0.125858
2077.82, 0.125911
2078.65, 0.125858
2079.48, 0.126018
2080.32, 0.126018
2081.15, 0.126071
2081.99, 0.126071
2082.83, 0.125911
2083.66, 0.125911
2084.5, 0.125964
2085.34, 0.125911
2086.18, 0.125911
2087.02, 0.126018
2087.86, 0.126018
2088.7, 0.126071
2089.54, 0.126018
2090.39, 0.126071
2091.23, 0.126071
2092.07, 0.126071
2092.92, 0.126284
2093.76, 0.126337
2094.61, 0.126337
2095.45, 0.126071
2096.3, 0.125964
2097.15, 0.126124
2098.0, 0.126231
2098.85, 0.126177
2099.7, 0.126071
2100.55, 0.126018
2101.4, 0.126124
2102.25, 0.126124
2103.1, 0.126284
2103.96, 0.126337
2104.81, 0.126337
2105.67, 0.126177
2106.52, 0.126124
2107.38, 0.126177
2108.24, 0.126231
2109.09, 0.126337
2109.95, 0.126390
2110.81, 0.126284
2111.67, 0.126124
2112.53, 0.126177
2113.39, 0.126177
2114.25, 0.126231
2115.12, 0.126337
2115.98, 0.126231
2116.84, 0.126231
2117.71, 0.126284
2118.58, 0.126177
2119.44, 0.126284
2120.31, 0.126337
2121.18, 0.126337
2122.04, 0.126497
2122.91, 0.126444
2123.78, 0.126390
2124.65, 0.126444
2125.52, 0.126337
2126.4, 0.126390
2127.27, 0.126390
2128.14, 0.126444
2129.02, 0.126497
2129.89, 0.126444
2130.77, 0.126390
2131.64, 0.126497
2132.52, 0.126710
2133.4, 0.126550
2134.27, 0.126497
2135.15, 0.126657
2136.03, 0.126603
2136.91, 0.126603
2137.79, 0.126710
2138.68, 0.126657
2139.56, 0.126657
2140.44, 0.126763
2141.33, 0.126870
2142.21, 0.126763
2143.1, 0.126923
2143.99, 0.126976
2144.87, 0.126816
2145.76, 0.126923
2146.65, 0.127030
2147.54, 0.127030
2148.43, 0.126923
