Database of Origin, USGS Spectral Database
Sample Description, See USGS database for additional info
Date Added,2016-08-03 21:25:46.493558

Data ID,USGS_col02          
Sample ID, colemanite_gds143.6030
Mineral Name, colemanite
Material Class,Borate

Wavelength
1499.61, 0.229339
1500.04, 0.229389
1500.48, 0.228785
1500.91, 0.228534
1501.35, 0.228534
1501.78, 0.228031
1502.22, 0.227880
1502.65, 0.227628
1503.09, 0.226923
1503.53, 0.226722
1503.96, 0.226974
1504.4, 0.226772
1504.83, 0.226319
1505.27, 0.226068
1505.71, 0.225162
1506.15, 0.224608
1506.58, 0.224810
1507.02, 0.224910
1507.46, 0.224860
1507.9, 0.224558
1508.34, 0.223853
1508.78, 0.223350
1509.21, 0.223753
1509.66, 0.224105
1510.09, 0.223904
1510.53, 0.223904
1510.97, 0.223954
1511.42, 0.223300
1511.86, 0.222595
1512.3, 0.222193
1512.74, 0.222193
1513.18, 0.222243
1513.62, 0.221589
1514.06, 0.221639
1514.51, 0.221840
1514.95, 0.221438
1515.39, 0.220985
1515.83, 0.221085
1516.28, 0.220834
1516.72, 0.220331
1517.16, 0.220934
1517.61, 0.221136
1518.05, 0.220632
1518.5, 0.220129
1518.94, 0.220029
1519.39, 0.219978
1519.83, 0.219827
1520.28, 0.219777
1520.73, 0.219676
1521.17, 0.219525
1521.62, 0.219777
1522.07, 0.219727
1522.51, 0.219425
1522.96, 0.219274
1523.41, 0.219022
1523.85, 0.218720
1524.3, 0.218770
1524.75, 0.218670
1525.2, 0.218519
1525.65, 0.218418
1526.1, 0.218720
1526.55, 0.218619
1527.0, 0.218166
1527.45, 0.218066
1527.9, 0.217714
1528.35, 0.217613
1528.8, 0.217613
1529.25, 0.217965
1529.7, 0.218066
1530.15, 0.217462
1530.6, 0.217512
1531.05, 0.217714
1531.51, 0.217613
1531.96, 0.217210
1532.41, 0.216858
1532.87, 0.217110
1533.32, 0.217563
1533.77, 0.217261
1534.23, 0.216707
1534.68, 0.216707
1535.14, 0.216606
1535.59, 0.216204
1536.05, 0.216204
1536.5, 0.216455
1536.96, 0.216707
1537.41, 0.216556
1537.87, 0.216405
1538.32, 0.216053
1538.78, 0.216002
1539.24, 0.216053
1539.7, 0.216103
1540.15, 0.216053
1540.61, 0.216053
1541.07, 0.215902
1541.53, 0.215700
1541.98, 0.215549
1542.44, 0.215650
1542.9, 0.215952
1543.36, 0.215751
1543.82, 0.215650
1544.28, 0.215952
1544.74, 0.216153
1545.2, 0.216304
1545.66, 0.216103
1546.12, 0.216254
1546.59, 0.216304
1547.05, 0.216103
1547.51, 0.215751
1547.97, 0.215851
1548.43, 0.216153
1548.9, 0.216405
1549.36, 0.216808
1549.82, 0.216657
1550.29, 0.216556
1550.75, 0.216959
1551.21, 0.216908
1551.68, 0.216858
1552.14, 0.217059
1552.61, 0.217160
1553.07, 0.217361
1553.54, 0.217915
1554.0, 0.217563
1554.47, 0.217462
1554.93, 0.217764
1555.4, 0.217915
1555.87, 0.217965
1556.34, 0.218066
1556.8, 0.218015
1557.27, 0.218418
1557.74, 0.218569
1558.21, 0.218720
1558.68, 0.218821
1559.14, 0.218921
1559.61, 0.219123
1560.08, 0.219324
1560.55, 0.219425
1561.02, 0.219576
1561.49, 0.219928
1561.96, 0.219928
1562.43, 0.220029
1562.9, 0.220582
1563.38, 0.220783
1563.85, 0.220884
1564.32, 0.220934
1564.79, 0.221236
1565.26, 0.221337
1565.74, 0.221538
1566.21, 0.221891
1566.68, 0.222243
1567.16, 0.222092
1567.63, 0.221941
1568.1, 0.222193
1568.58, 0.222193
1569.05, 0.222646
1569.53, 0.222998
1570.0, 0.223199
1570.48, 0.223551
1570.96, 0.223702
1571.43, 0.223904
1571.91, 0.224357
1572.39, 0.224759
1572.86, 0.224457
1573.34, 0.224558
1573.82, 0.225414
1574.3, 0.225866
1574.77, 0.225967
1575.25, 0.226068
1575.73, 0.226319
1576.21, 0.226420
1576.69, 0.226521
1577.17, 0.226873
1577.65, 0.227175
1578.13, 0.227326
1578.61, 0.227326
1579.09, 0.227376
1579.57, 0.227477
1580.05, 0.227527
1580.54, 0.227880
1581.02, 0.227930
1581.5, 0.227930
1581.98, 0.228031
1582.47, 0.228232
1582.95, 0.228785
1583.43, 0.228886
1583.92, 0.229037
1584.4, 0.229389
1584.88, 0.229339
1585.37, 0.229138
1585.85, 0.229641
1586.34, 0.229943
1586.82, 0.229893
1587.31, 0.229993
1587.8, 0.230195
1588.28, 0.230195
1588.77, 0.229993
1589.26, 0.230094
1589.74, 0.230195
1590.23, 0.230245
1590.72, 0.230144
1591.21, 0.230195
1591.7, 0.230446
1592.19, 0.230647
1592.67, 0.230798
1593.16, 0.230949
1593.65, 0.231151
1594.14, 0.231000
1594.63, 0.230949
1595.12, 0.231100
1595.61, 0.230949
1596.11, 0.231000
1596.6, 0.231050
1597.09, 0.231000
1597.58, 0.231151
1598.08, 0.231100
1598.57, 0.230949
1599.06, 0.231050
1599.55, 0.231302
1600.05, 0.231100
1600.54, 0.231100
1601.04, 0.231251
1601.53, 0.231453
1602.03, 0.231402
1602.52, 0.231050
1603.02, 0.230798
1603.51, 0.230647
1604.01, 0.231151
1604.5, 0.231553
1605.0, 0.231352
1605.5, 0.231251
1606.0, 0.231201
1606.49, 0.231050
1606.99, 0.230849
1607.49, 0.230547
1607.99, 0.230547
1608.49, 0.230698
1608.99, 0.230647
1609.49, 0.230647
1609.99, 0.230647
1610.49, 0.230748
1610.99, 0.230698
1611.49, 0.230597
1611.99, 0.230497
1612.49, 0.230295
1612.99, 0.230245
1613.49, 0.230094
1614.0, 0.229943
1614.5, 0.229842
1615.0, 0.230044
1615.51, 0.229842
1616.01, 0.229641
1616.51, 0.229641
1617.02, 0.229540
1617.52, 0.229440
1618.03, 0.229540
1618.53, 0.229641
1619.04, 0.229289
1619.54, 0.229138
1620.05, 0.229188
1620.55, 0.229138
1621.06, 0.228936
1621.57, 0.228785
1622.08, 0.228634
1622.58, 0.228383
1623.09, 0.228332
1623.6, 0.228081
1624.11, 0.227980
1624.62, 0.228332
1625.13, 0.228332
1625.64, 0.228232
1626.15, 0.228081
1626.66, 0.227980
1627.17, 0.227980
1627.68, 0.227880
1628.19, 0.227829
1628.7, 0.227729
1629.21, 0.227578
1629.72, 0.227427
1630.24, 0.227376
1630.75, 0.227074
1631.26, 0.227074
1631.78, 0.227074
1632.29, 0.226873
1632.8, 0.226823
1633.32, 0.226823
1633.83, 0.226923
1634.35, 0.226923
1634.86, 0.226873
1635.38, 0.226521
1635.9, 0.226420
1636.41, 0.226168
1636.93, 0.226269
1637.45, 0.226521
1637.96, 0.226319
1638.48, 0.226269
1639.0, 0.226521
1639.52, 0.226370
1640.04, 0.225967
1640.56, 0.225715
1641.08, 0.225766
1641.59, 0.225967
1642.11, 0.226017
1642.63, 0.225967
1643.16, 0.225866
1643.68, 0.225766
1644.2, 0.225615
1644.72, 0.225464
1645.24, 0.225363
1645.76, 0.225464
1646.29, 0.225615
1646.81, 0.225866
1647.33, 0.225816
1647.86, 0.225665
1648.38, 0.225564
1648.9, 0.225514
1649.43, 0.225363
1649.95, 0.225212
1650.48, 0.225162
1651.0, 0.225313
1651.53, 0.225363
1652.06, 0.225363
1652.58, 0.225363
1653.11, 0.225464
1653.64, 0.225665
1654.17, 0.225866
1654.69, 0.225967
1655.22, 0.225967
1655.75, 0.225967
1656.28, 0.225917
1656.81, 0.225866
1657.34, 0.225715
1657.87, 0.225564
1658.4, 0.225715
1658.93, 0.225917
1659.46, 0.225967
1659.99, 0.226068
1660.52, 0.226118
1661.05, 0.226319
1661.59, 0.226319
1662.12, 0.226219
1662.65, 0.226319
1663.19, 0.226521
1663.72, 0.226621
1664.26, 0.226672
1664.79, 0.226722
1665.32, 0.226772
1665.86, 0.226923
1666.39, 0.227225
1666.93, 0.227125
1667.47, 0.227175
1668.0, 0.227326
1668.54, 0.227427
1669.08, 0.227678
1669.61, 0.227829
1670.15, 0.227829
1670.69, 0.227779
1671.23, 0.227930
1671.77, 0.228081
1672.31, 0.227980
1672.85, 0.228081
1673.39, 0.228483
1673.93, 0.228735
1674.47, 0.228634
1675.01, 0.228685
1675.55, 0.228936
1676.09, 0.229037
1676.64, 0.229138
1677.18, 0.229339
1677.72, 0.229339
1678.26, 0.229339
1678.81, 0.229641
1679.35, 0.229842
1679.89, 0.229691
1680.44, 0.229742
1680.98, 0.230195
1681.53, 0.230497
1682.07, 0.230547
1682.62, 0.230547
1683.17, 0.230647
1683.71, 0.230798
1684.26, 0.230899
1684.81, 0.230949
1685.36, 0.231302
1685.9, 0.231654
1686.45, 0.231755
1687.0, 0.231805
1687.55, 0.231704
1688.1, 0.231604
1688.65, 0.231604
1689.2, 0.231906
1689.75, 0.232208
1690.3, 0.232308
1690.85, 0.232359
1691.41, 0.232560
1691.96, 0.232661
1692.51, 0.232661
1693.06, 0.233013
1693.61, 0.233264
1694.17, 0.233315
1694.72, 0.233415
1695.28, 0.233516
1695.83, 0.233768
1696.39, 0.234070
1696.94, 0.234271
1697.5, 0.234573
1698.05, 0.234472
1698.61, 0.234472
1699.17, 0.234623
1699.72, 0.234925
1700.28, 0.235328
1700.84, 0.235479
1701.4, 0.235630
1701.95, 0.235730
1702.51, 0.235881
1703.07, 0.236032
1703.63, 0.236334
1704.19, 0.236536
1704.75, 0.236787
1705.31, 0.236838
1705.88, 0.237039
1706.44, 0.237291
1707.0, 0.237442
1707.56, 0.237593
1708.12, 0.237744
1708.69, 0.238046
1709.25, 0.238146
1709.81, 0.238197
1710.38, 0.238448
1710.94, 0.238549
1711.51, 0.238750
1712.07, 0.238951
1712.64, 0.239052
1713.2, 0.239052
1713.77, 0.239253
1714.34, 0.239505
1714.9, 0.239606
1715.47, 0.239606
1716.04, 0.240008
1716.61, 0.240310
1717.18, 0.240210
1717.74, 0.240210
1718.31, 0.240461
1718.88, 0.240562
1719.45, 0.240612
1720.02, 0.240763
1720.59, 0.240964
1721.17, 0.241065
1721.74, 0.241166
1722.31, 0.241216
1722.88, 0.241317
1723.45, 0.241468
1724.03, 0.241619
1724.6, 0.241669
1725.18, 0.241719
1725.75, 0.242021
1726.33, 0.242072
1726.9, 0.242072
1727.48, 0.242122
1728.05, 0.242273
1728.63, 0.242323
1729.2, 0.242424
1729.78, 0.242625
1730.36, 0.242726
1730.94, 0.242776
1731.51, 0.242827
1732.09, 0.242877
1732.67, 0.242927
1733.25, 0.243129
1733.83, 0.243229
1734.41, 0.243078
1734.99, 0.243129
1735.57, 0.243280
1736.15, 0.243481
1736.73, 0.243481
1737.32, 0.243481
1737.9, 0.243581
1738.48, 0.243632
1739.07, 0.243481
1739.65, 0.243280
1740.23, 0.243481
1740.82, 0.243883
1741.4, 0.244135
1741.99, 0.243883
1742.57, 0.243632
1743.16, 0.243732
1743.74, 0.243984
1744.33, 0.244135
1744.92, 0.244034
1745.51, 0.243883
1746.09, 0.243783
1746.68, 0.243783
1747.27, 0.243984
1747.86, 0.243934
1748.45, 0.243833
1749.04, 0.243883
1749.63, 0.244135
1750.22, 0.244185
1750.81, 0.244135
1751.4, 0.243934
1751.99, 0.243732
1752.59, 0.243934
1753.18, 0.243984
1753.77, 0.243934
1754.37, 0.244085
1754.96, 0.244034
1755.56, 0.243984
1756.15, 0.243934
1756.74, 0.244135
1757.34, 0.244085
1757.94, 0.244135
1758.53, 0.244336
1759.13, 0.244185
1759.73, 0.244135
1760.32, 0.244387
1760.92, 0.244487
1761.52, 0.244185
1762.12, 0.243833
1762.72, 0.243984
1763.32, 0.244185
1763.92, 0.244236
1764.52, 0.244085
1765.12, 0.244185
1765.72, 0.244387
1766.32, 0.244387
1766.92, 0.244336
1767.53, 0.244286
1768.13, 0.244185
1768.73, 0.244236
1769.34, 0.244336
1769.94, 0.244437
1770.55, 0.244588
1771.15, 0.244538
1771.76, 0.244588
1772.36, 0.244638
1772.97, 0.244588
1773.57, 0.244538
1774.18, 0.244538
1774.79, 0.244588
1775.4, 0.244638
1776.0, 0.244638
1776.61, 0.244638
1777.22, 0.244739
1777.83, 0.244991
1778.44, 0.245192
1779.05, 0.245343
1779.66, 0.245293
1780.27, 0.245293
1780.88, 0.245293
1781.5, 0.245242
1782.11, 0.245343
1782.72, 0.245242
1783.33, 0.245192
1783.95, 0.245444
1784.56, 0.245746
1785.18, 0.245796
1785.79, 0.245695
1786.41, 0.245695
1787.02, 0.245645
1787.64, 0.245746
1788.26, 0.245796
1788.87, 0.245846
1789.49, 0.245746
1790.11, 0.245645
1790.73, 0.245796
1791.35, 0.245897
1791.96, 0.245947
1792.58, 0.245947
1793.21, 0.245846
1793.83, 0.245746
1794.45, 0.245997
1795.07, 0.246249
1795.69, 0.246299
1796.31, 0.246198
1796.93, 0.246047
1797.56, 0.245997
1798.18, 0.246047
1798.8, 0.246299
1799.43, 0.246500
1800.05, 0.246450
1800.68, 0.246249
1801.3, 0.246148
1801.93, 0.246299
1802.56, 0.246450
1803.18, 0.246551
1803.81, 0.246500
1804.44, 0.246400
1805.07, 0.246349
1805.7, 0.246349
1806.33, 0.246198
1806.95, 0.246299
1807.58, 0.246500
1808.22, 0.246601
1808.85, 0.246651
1809.48, 0.246651
1810.11, 0.246601
1810.74, 0.246500
1811.38, 0.246349
1812.01, 0.246651
1812.64, 0.246853
1813.28, 0.246903
1813.91, 0.246853
1814.55, 0.246903
1815.18, 0.246752
1815.82, 0.246702
1816.45, 0.246802
1817.09, 0.246953
1817.73, 0.247104
1818.36, 0.247004
1819.0, 0.247004
1819.64, 0.246903
1820.28, 0.246903
1820.92, 0.246853
1821.56, 0.246702
1822.2, 0.246903
1822.84, 0.247255
1823.48, 0.247457
1824.12, 0.247557
1824.76, 0.247708
1825.41, 0.247507
1826.05, 0.247054
1826.69, 0.247306
1827.34, 0.247759
1827.98, 0.247658
1828.63, 0.247608
1829.27, 0.247859
1829.92, 0.247960
1830.56, 0.247708
1831.21, 0.247507
1831.86, 0.247809
1832.5, 0.247960
1833.15, 0.248061
1833.8, 0.248262
1834.45, 0.248212
1835.1, 0.248161
1835.75, 0.247910
1836.4, 0.247809
1837.05, 0.248111
1837.7, 0.248262
1838.35, 0.248513
1839.01, 0.248463
1839.66, 0.248262
1840.31, 0.248312
1840.96, 0.248312
1841.62, 0.248010
1842.27, 0.248161
1842.93, 0.248614
1843.58, 0.248916
1844.24, 0.248916
1844.9, 0.248966
1845.55, 0.248866
1846.21, 0.248614
1846.87, 0.248111
1847.53, 0.248161
1848.18, 0.248463
1848.84, 0.248815
1849.5, 0.249067
1850.16, 0.249168
1850.82, 0.249218
1851.48, 0.249319
1852.14, 0.248966
1852.81, 0.248463
1853.47, 0.248010
1854.13, 0.248111
1854.8, 0.248715
1855.46, 0.248765
1856.12, 0.248413
1856.79, 0.248161
1857.45, 0.248312
1858.12, 0.248212
1858.79, 0.247910
1859.45, 0.247507
1860.12, 0.247708
1860.79, 0.247859
1861.46, 0.247910
1862.12, 0.247859
1862.79, 0.247759
1863.46, 0.247457
1864.13, 0.247406
1864.8, 0.247557
1865.48, 0.247557
1866.15, 0.247356
1866.82, 0.246903
1867.49, 0.246249
1868.16, 0.245997
1868.84, 0.246198
1869.51, 0.246098
1870.19, 0.245393
1870.86, 0.244840
1871.54, 0.245091
1872.21, 0.244991
1872.89, 0.244286
1873.56, 0.244185
1874.24, 0.244538
1874.92, 0.244437
1875.6, 0.244236
1876.28, 0.243833
1876.96, 0.243280
1877.64, 0.243280
1878.32, 0.243280
1879.0, 0.242927
1879.68, 0.242676
1880.36, 0.242474
1881.04, 0.242223
1881.73, 0.242122
1882.41, 0.241770
1883.09, 0.241367
1883.78, 0.240713
1884.46, 0.240461
1885.15, 0.240310
1885.83, 0.239908
1886.52, 0.239505
1887.21, 0.239253
1887.89, 0.239153
1888.58, 0.238750
1889.27, 0.238096
1889.96, 0.237391
1890.65, 0.237140
1891.34, 0.236787
1892.03, 0.236284
1892.72, 0.236083
1893.41, 0.235680
1894.1, 0.235328
1894.79, 0.234925
1895.49, 0.234422
1896.18, 0.233919
1896.87, 0.233415
1897.57, 0.232963
1898.26, 0.232359
1898.96, 0.231553
1899.65, 0.230949
1900.35, 0.230798
1901.05, 0.230547
1901.74, 0.230044
1902.44, 0.229188
1903.14, 0.228584
1903.84, 0.228383
1904.54, 0.227729
1905.24, 0.226823
1905.94, 0.226168
1906.64, 0.225715
1907.34, 0.225564
1908.04, 0.225011
1908.75, 0.224206
1909.45, 0.223551
1910.15, 0.223098
1910.86, 0.222344
1911.56, 0.221589
1912.27, 0.221035
1912.97, 0.220280
1913.68, 0.219425
1914.39, 0.218821
1915.09, 0.218267
1915.8, 0.217563
1916.51, 0.216808
1917.22, 0.216204
1917.93, 0.215700
1918.64, 0.214895
1919.35, 0.213889
1920.06, 0.212832
1920.77, 0.212027
1921.48, 0.211473
1922.19, 0.210768
1922.91, 0.209913
1923.62, 0.209007
1924.33, 0.208302
1925.05, 0.207698
1925.76, 0.206843
1926.48, 0.205887
1927.19, 0.204981
1927.91, 0.204276
1928.63, 0.203471
1929.35, 0.202465
1930.07, 0.201508
1930.78, 0.200552
1931.5, 0.199797
1932.22, 0.199042
1932.94, 0.198237
1933.66, 0.197482
1934.39, 0.196576
1935.11, 0.195620
1935.83, 0.194865
1936.55, 0.193959
1937.28, 0.193154
1938.0, 0.192299
1938.73, 0.191443
1939.45, 0.190537
1940.18, 0.189832
1940.9, 0.189078
1941.63, 0.188323
1942.36, 0.187517
1943.09, 0.186813
1943.81, 0.186310
1944.54, 0.185655
1945.27, 0.185102
1946.0, 0.184448
1946.73, 0.183743
1947.47, 0.183340
1948.2, 0.182887
1948.93, 0.182334
1949.66, 0.181982
1950.4, 0.181680
1951.13, 0.181428
1951.86, 0.181327
1952.6, 0.181025
1953.34, 0.180623
1954.07, 0.180522
1954.81, 0.180270
1955.55, 0.179968
1956.29, 0.179817
1957.02, 0.179767
1957.76, 0.179817
1958.5, 0.179868
1959.24, 0.179918
1959.98, 0.179767
1960.72, 0.179767
1961.47, 0.179817
1962.21, 0.180019
1962.95, 0.180170
1963.7, 0.180321
1964.44, 0.180421
1965.18, 0.180623
1965.93, 0.180723
1966.67, 0.180723
1967.42, 0.180925
1968.17, 0.181126
1968.92, 0.181277
1969.66, 0.181478
1970.41, 0.181529
1971.16, 0.181680
1971.91, 0.181831
1972.66, 0.182032
1973.41, 0.182283
1974.16, 0.182485
1974.92, 0.182686
1975.67, 0.182988
1976.42, 0.183290
1977.18, 0.183542
1977.93, 0.183542
1978.69, 0.183642
1979.44, 0.183995
1980.2, 0.184045
1980.95, 0.184196
1981.71, 0.184548
1982.47, 0.184699
1983.23, 0.184800
1983.99, 0.184951
1984.74, 0.185051
1985.51, 0.185253
1986.27, 0.185353
1987.03, 0.185353
1987.79, 0.185504
1988.55, 0.185655
1989.32, 0.186008
1990.08, 0.186159
1990.84, 0.186209
1991.61, 0.186310
1992.37, 0.186612
1993.14, 0.186863
1993.9, 0.186914
1994.67, 0.187165
1995.44, 0.187417
1996.21, 0.187467
1996.98, 0.187467
1997.75, 0.187719
1998.52, 0.187970
1999.29, 0.188071
2000.06, 0.188272
2000.83, 0.188373
2001.6, 0.188474
2002.38, 0.188776
2003.15, 0.189078
2003.93, 0.189178
2004.7, 0.189128
2005.48, 0.189329
2006.25, 0.189631
2007.03, 0.189782
2007.81, 0.189933
2008.58, 0.190134
2009.36, 0.190436
2010.14, 0.190789
2010.92, 0.191040
2011.7, 0.191292
2012.48, 0.191493
2013.26, 0.191644
2014.05, 0.191846
2014.83, 0.191946
2015.61, 0.192097
2016.4, 0.192248
2017.18, 0.192349
2017.97, 0.192550
2018.75, 0.192802
2019.54, 0.192953
2020.32, 0.193003
2021.11, 0.193053
2021.9, 0.193003
2022.69, 0.193154
2023.48, 0.193456
2024.27, 0.193456
2025.06, 0.193506
2025.85, 0.193557
2026.64, 0.193456
2027.44, 0.193557
2028.23, 0.193808
2029.02, 0.193959
2029.82, 0.193959
2030.61, 0.194060
2031.41, 0.194211
2032.2, 0.194261
2033.0, 0.194463
2033.8, 0.194614
2034.6, 0.194765
2035.4, 0.195016
2036.2, 0.195016
2037.0, 0.195016
2037.8, 0.195167
2038.6, 0.195368
2039.4, 0.195620
2040.2, 0.195771
2041.01, 0.195922
2041.81, 0.195922
2042.61, 0.195922
2043.42, 0.196073
2044.22, 0.196224
2045.03, 0.196375
2045.84, 0.196476
2046.65, 0.196425
2047.46, 0.196425
2048.26, 0.196425
2049.07, 0.196325
2049.88, 0.196325
2050.69, 0.196325
2051.51, 0.196375
2052.32, 0.196476
2053.13, 0.196425
2053.94, 0.196274
2054.76, 0.196325
2055.57, 0.196325
2056.39, 0.196174
2057.2, 0.196023
2058.02, 0.195972
2058.84, 0.195922
2059.66, 0.195972
2060.48, 0.196123
2061.29, 0.195922
2062.11, 0.195620
2062.94, 0.195519
2063.76, 0.195419
2064.58, 0.195268
2065.4, 0.195167
2066.22, 0.195217
2067.05, 0.195268
2067.87, 0.195167
2068.7, 0.194915
2069.52, 0.194664
2070.35, 0.194563
2071.18, 0.194412
2072.0, 0.194312
2072.83, 0.194110
2073.66, 0.193657
2074.49, 0.193456
2075.32, 0.193154
2076.15, 0.192751
2076.98, 0.192349
2077.82, 0.191896
2078.65, 0.191292
2079.48, 0.190688
2080.32, 0.190034
2081.15, 0.189329
2081.99, 0.188474
2082.83, 0.187366
2083.66, 0.186058
2084.5, 0.184749
2085.34, 0.183290
2086.18, 0.181680
2087.02, 0.179968
2087.86, 0.178106
2088.7, 0.175993
2089.54, 0.173829
2090.39, 0.171564
2091.23, 0.169048
2092.07, 0.166582
2092.92, 0.164166
2093.76, 0.161851
2094.61, 0.159485
2095.45, 0.157120
2096.3, 0.154906
2097.15, 0.152893
2098.0, 0.151232
2098.85, 0.149521
2099.7, 0.147961
2100.55, 0.146602
2101.4, 0.145545
2102.25, 0.144639
2103.1, 0.143935
2103.96, 0.143683
2104.81, 0.143230
2105.67, 0.142878
2106.52, 0.142928
2107.38, 0.142928
2108.24, 0.142978
2109.09, 0.143079
2109.95, 0.143331
2110.81, 0.143633
2111.67, 0.144337
2112.53, 0.145092
2113.39, 0.145847
2114.25, 0.146652
2115.12, 0.147508
2115.98, 0.148665
2116.84, 0.149923
2117.71, 0.151131
2118.58, 0.152389
2119.44, 0.153648
2120.31, 0.154906
2121.18, 0.156315
2122.04, 0.157623
2122.91, 0.159133
2123.78, 0.160542
2124.65, 0.161750
2125.52, 0.162706
2126.4, 0.163763
2127.27, 0.164870
2128.14, 0.165877
2129.02, 0.166833
2129.89, 0.167890
2130.77, 0.168947
2131.64, 0.169802
2132.52, 0.170457
2133.4, 0.171111
2134.27, 0.171816
2135.15, 0.172671
2136.03, 0.173376
2136.91, 0.173929
2137.79, 0.174433
2138.68, 0.174835
2139.56, 0.175238
2140.44, 0.175540
2141.33, 0.175791
2142.21, 0.176043
2143.1, 0.176144
2143.99, 0.175993
2144.87, 0.175691
2145.76, 0.175540
2146.65, 0.175389
2147.54, 0.175036
