Database of Origin, USGS Spectral Database
Sample Description, See USGS database for additional info
Date Added,2016-08-10 04:56:00.019779

Data ID,USGS_ill02          
Sample ID, illite_gds4.10916
Mineral Name, illite
Material Class,Phyllosilicate

Wavelength
1379.5, 0.196944
1379.87, 0.196967
1380.23, 0.197014
1380.6, 0.197107
1380.97, 0.197083
1381.34, 0.196804
1381.7, 0.196455
1382.07, 0.196478
1382.44, 0.196688
1382.81, 0.196571
1383.18, 0.196315
1383.55, 0.196222
1383.92, 0.196106
1384.29, 0.196059
1384.66, 0.195664
1385.03, 0.195431
1385.4, 0.195454
1385.77, 0.195408
1386.14, 0.195221
1386.51, 0.194942
1386.88, 0.194779
1387.25, 0.194733
1387.62, 0.194709
1387.99, 0.194640
1388.36, 0.194174
1388.74, 0.193965
1389.11, 0.193965
1389.48, 0.193755
1389.85, 0.193429
1390.23, 0.193197
1390.6, 0.193057
1390.97, 0.192964
1391.35, 0.192824
1391.72, 0.192382
1392.09, 0.192080
1392.47, 0.191963
1392.84, 0.191754
1393.21, 0.191498
1393.59, 0.191125
1393.96, 0.190799
1394.34, 0.190660
1394.71, 0.190474
1395.09, 0.190357
1395.46, 0.190078
1395.84, 0.189612
1396.22, 0.189287
1396.59, 0.188844
1396.97, 0.188682
1397.35, 0.188682
1397.72, 0.188379
1398.1, 0.188053
1398.48, 0.187774
1398.85, 0.187332
1399.23, 0.186983
1399.61, 0.186727
1399.99, 0.186564
1400.37, 0.186354
1400.74, 0.185958
1401.12, 0.185609
1401.5, 0.185307
1401.88, 0.185051
1402.26, 0.184772
1402.64, 0.184422
1403.02, 0.184143
1403.4, 0.183841
1403.78, 0.183538
1404.16, 0.183282
1404.54, 0.182956
1404.92, 0.182630
1405.3, 0.182304
1405.68, 0.181979
1406.06, 0.181653
1406.44, 0.181397
1406.83, 0.181257
1407.21, 0.180931
1407.59, 0.180349
1407.97, 0.180000
1408.35, 0.179931
1408.74, 0.179768
1409.12, 0.179465
1409.5, 0.179093
1409.89, 0.178720
1410.27, 0.178488
1410.65, 0.178232
1411.04, 0.178045
1411.42, 0.177859
1411.81, 0.177696
1412.19, 0.177440
1412.58, 0.176975
1412.96, 0.176812
1413.35, 0.176951
1413.73, 0.176882
1414.12, 0.176742
1414.5, 0.176602
1414.89, 0.176463
1415.28, 0.176230
1415.66, 0.175997
1416.05, 0.175927
1416.44, 0.175881
1416.82, 0.175718
1417.21, 0.175508
1417.6, 0.175462
1417.98, 0.175462
1418.37, 0.175415
1418.76, 0.175508
1419.15, 0.175532
1419.54, 0.175648
1419.93, 0.175602
1420.32, 0.175765
1420.71, 0.176207
1421.09, 0.176509
1421.48, 0.176765
1421.88, 0.176998
1422.27, 0.177394
1422.66, 0.177836
1423.05, 0.178232
1423.44, 0.178650
1423.83, 0.179046
1424.22, 0.179232
1424.61, 0.179512
1425.0, 0.179884
1425.39, 0.180117
1425.78, 0.180326
1426.18, 0.180675
1426.57, 0.181071
1426.96, 0.181327
1427.36, 0.181443
1427.75, 0.181536
1428.14, 0.181792
1428.54, 0.182025
1428.93, 0.182002
1429.32, 0.182188
1429.72, 0.182467
1430.11, 0.182607
1430.51, 0.182793
1430.9, 0.183049
1431.3, 0.183189
1431.69, 0.183189
1432.09, 0.183398
1432.48, 0.183468
1432.88, 0.183608
1433.28, 0.183957
1433.67, 0.184073
1434.07, 0.184003
1434.46, 0.184143
1434.86, 0.184353
1435.26, 0.184539
1435.66, 0.184748
1436.05, 0.184865
1436.45, 0.184888
1436.85, 0.184865
1437.25, 0.185051
1437.65, 0.185121
1438.05, 0.185237
1438.44, 0.185353
1438.84, 0.185423
1439.24, 0.185400
1439.64, 0.185353
1440.04, 0.185353
1440.44, 0.185540
1440.84, 0.185702
1441.24, 0.185726
1441.65, 0.185679
1442.05, 0.185772
1442.45, 0.185819
1442.85, 0.185819
1443.25, 0.185819
1443.65, 0.185865
1444.05, 0.185982
1444.46, 0.186028
1444.86, 0.186121
1445.26, 0.186168
1445.67, 0.186191
1446.07, 0.186168
1446.47, 0.186238
1446.88, 0.186284
1447.28, 0.186331
1447.68, 0.186424
1448.09, 0.186377
1448.49, 0.186284
1448.9, 0.186424
1449.3, 0.186494
1449.71, 0.186447
1450.11, 0.186331
1450.52, 0.186424
1450.93, 0.186633
1451.33, 0.186703
1451.74, 0.186703
1452.14, 0.186680
1452.55, 0.186587
1452.96, 0.186517
1453.36, 0.186494
1453.77, 0.186610
1454.18, 0.186494
1454.59, 0.186447
1455.0, 0.186657
1455.41, 0.186680
1455.81, 0.186540
1456.22, 0.186564
1456.63, 0.186703
1457.04, 0.186610
1457.45, 0.186587
1457.86, 0.186680
1458.27, 0.186727
1458.68, 0.186727
1459.09, 0.186866
1459.5, 0.186820
1459.91, 0.186727
1460.32, 0.186657
1460.74, 0.186610
1461.15, 0.186703
1461.56, 0.186657
1461.97, 0.186657
1462.39, 0.186727
1462.8, 0.186820
1463.21, 0.186657
1463.62, 0.186424
1464.04, 0.186447
1464.45, 0.186447
1464.86, 0.186447
1465.28, 0.186564
1465.69, 0.186610
1466.11, 0.186633
1466.52, 0.186750
1466.94, 0.186703
1467.35, 0.186750
1467.77, 0.186727
1468.18, 0.186633
1468.6, 0.186680
1469.02, 0.186796
1469.43, 0.186796
1469.85, 0.186796
1470.27, 0.186750
1470.68, 0.186587
1471.1, 0.186633
1471.52, 0.186750
1471.94, 0.186703
1472.35, 0.186773
1472.77, 0.187006
1473.19, 0.187029
1473.61, 0.187052
1474.03, 0.187029
1474.45, 0.186913
1474.87, 0.186889
1475.29, 0.187145
1475.71, 0.187262
1476.13, 0.187215
1476.55, 0.187099
1476.97, 0.186913
1477.39, 0.186913
1477.81, 0.187122
1478.23, 0.187355
1478.65, 0.187378
1479.07, 0.187378
1479.5, 0.187378
1479.92, 0.187378
1480.34, 0.187425
1480.76, 0.187495
1481.19, 0.187495
1481.61, 0.187611
1482.03, 0.187704
1482.46, 0.187727
1482.88, 0.187727
1483.31, 0.187657
1483.73, 0.187495
1484.16, 0.187727
1484.58, 0.187960
1485.01, 0.187960
1485.43, 0.187890
1485.86, 0.187913
1486.28, 0.187983
1486.71, 0.188123
1487.14, 0.188216
1487.56, 0.188123
1487.99, 0.188170
1488.42, 0.188170
1488.84, 0.188263
1489.27, 0.188426
1489.7, 0.188519
1490.13, 0.188588
1490.56, 0.188635
1490.98, 0.188682
1491.41, 0.188751
1491.84, 0.188775
1492.27, 0.188751
1492.7, 0.188891
1493.13, 0.188868
1493.56, 0.188891
1493.99, 0.188938
1494.42, 0.188961
1494.85, 0.189077
1495.29, 0.189170
1495.72, 0.189263
1496.15, 0.189310
1496.58, 0.189263
1497.01, 0.189356
1497.44, 0.189403
1497.88, 0.189356
1498.31, 0.189380
1498.74, 0.189380
1499.18, 0.189473
1499.61, 0.189566
1500.04, 0.189659
1500.48, 0.189706
1500.91, 0.189822
1501.35, 0.189915
1501.78, 0.190055
1502.22, 0.190078
1502.65, 0.190125
1503.09, 0.190171
1503.53, 0.190171
1503.96, 0.190194
1504.4, 0.190218
1504.83, 0.190334
1505.27, 0.190381
1505.71, 0.190381
1506.15, 0.190520
1506.58, 0.190637
1507.02, 0.190520
1507.46, 0.190520
1507.9, 0.190543
1508.34, 0.190590
1508.78, 0.190706
1509.21, 0.190799
1509.66, 0.190846
1510.09, 0.190846
1510.53, 0.190939
1510.97, 0.190986
1511.42, 0.191055
1511.86, 0.191218
1512.3, 0.191218
1512.74, 0.191172
1513.18, 0.191218
1513.62, 0.191265
1514.06, 0.191311
1514.51, 0.191358
1514.95, 0.191381
1515.39, 0.191428
1515.83, 0.191544
1516.28, 0.191661
1516.72, 0.191591
1517.16, 0.191591
1517.61, 0.191707
1518.05, 0.191800
1518.5, 0.191847
1518.94, 0.191963
1519.39, 0.191986
1519.83, 0.192033
1520.28, 0.192173
1520.73, 0.192196
1521.17, 0.192219
1521.62, 0.192242
1522.07, 0.192266
1522.51, 0.192266
1522.96, 0.192242
1523.41, 0.192312
1523.85, 0.192405
1524.3, 0.192592
1524.75, 0.192592
1525.2, 0.192661
1525.65, 0.192708
1526.1, 0.192638
1526.55, 0.192731
1527.0, 0.192731
1527.45, 0.192754
1527.9, 0.192941
1528.35, 0.193080
1528.8, 0.193080
1529.25, 0.193197
1529.7, 0.193453
1530.15, 0.193429
1530.6, 0.193383
1531.05, 0.193290
1531.51, 0.193290
1531.96, 0.193476
1532.41, 0.193546
1532.87, 0.193662
1533.32, 0.193755
1533.77, 0.193732
1534.23, 0.193709
1534.68, 0.193755
1535.14, 0.193988
1535.59, 0.194081
1536.05, 0.194011
1536.5, 0.194081
1536.96, 0.194267
1537.41, 0.194291
1537.87, 0.194360
1538.32, 0.194477
1538.78, 0.194570
1539.24, 0.194686
1539.7, 0.194733
1540.15, 0.194779
1540.61, 0.194919
1541.07, 0.194989
1541.53, 0.195059
1541.98, 0.195175
1542.44, 0.195105
1542.9, 0.195175
1543.36, 0.195315
1543.82, 0.195408
1544.28, 0.195454
1544.74, 0.195408
1545.2, 0.195501
1545.66, 0.195640
1546.12, 0.195850
1546.59, 0.196036
1547.05, 0.195990
1547.51, 0.195943
1547.97, 0.196013
1548.43, 0.196106
1548.9, 0.196176
1549.36, 0.196292
1549.82, 0.196385
1550.29, 0.196432
1550.75, 0.196455
1551.21, 0.196525
1551.68, 0.196618
1552.14, 0.196734
1552.61, 0.196781
1553.07, 0.196827
1553.54, 0.197060
1554.0, 0.197130
1554.47, 0.197107
1554.93, 0.197246
1555.4, 0.197456
1555.87, 0.197526
1556.34, 0.197526
1556.8, 0.197526
1557.27, 0.197619
1557.74, 0.197595
1558.21, 0.197619
1558.68, 0.197875
1559.14, 0.197991
1559.61, 0.198107
1560.08, 0.198177
1560.55, 0.198177
1561.02, 0.198131
1561.49, 0.198270
1561.96, 0.198503
1562.43, 0.198643
1562.9, 0.198689
1563.38, 0.198666
1563.85, 0.198713
1564.32, 0.198759
1564.79, 0.198829
1565.26, 0.198899
1565.74, 0.199038
1566.21, 0.199108
1566.68, 0.199062
1567.16, 0.199132
1567.63, 0.199248
1568.1, 0.199388
1568.58, 0.199481
1569.05, 0.199597
1569.53, 0.199806
1570.0, 0.199806
1570.48, 0.199876
1570.96, 0.199853
1571.43, 0.199900
1571.91, 0.199993
1572.39, 0.200225
1572.86, 0.200202
1573.34, 0.200225
1573.82, 0.200318
1574.3, 0.200365
1574.77, 0.200458
1575.25, 0.200574
1575.73, 0.200621
1576.21, 0.200621
1576.69, 0.200691
1577.17, 0.200877
1577.65, 0.200970
1578.13, 0.201017
1578.61, 0.201063
1579.09, 0.201156
1579.57, 0.201180
1580.05, 0.201226
1580.54, 0.201226
1581.02, 0.201366
1581.5, 0.201482
1581.98, 0.201482
1582.47, 0.201505
1582.95, 0.201552
1583.43, 0.201599
1583.92, 0.201645
1584.4, 0.201808
1584.88, 0.201994
1585.37, 0.202017
1585.85, 0.202134
1586.34, 0.202204
1586.82, 0.202134
1587.31, 0.202111
1587.8, 0.202180
1588.28, 0.202273
1588.77, 0.202367
1589.26, 0.202576
1589.74, 0.202623
1590.23, 0.202576
1590.72, 0.202646
1591.21, 0.202785
1591.7, 0.202879
1592.19, 0.202902
1592.67, 0.202879
1593.16, 0.202902
1593.65, 0.203065
1594.14, 0.203111
1594.63, 0.203181
1595.12, 0.203414
1595.61, 0.203460
1596.11, 0.203437
1596.6, 0.203484
1597.09, 0.203577
1597.58, 0.203693
1598.08, 0.203740
1598.57, 0.203810
1599.06, 0.203996
1599.55, 0.204089
1600.05, 0.204089
1600.54, 0.204182
1601.04, 0.204322
1601.53, 0.204415
1602.03, 0.204461
1602.52, 0.204508
1603.02, 0.204508
1603.51, 0.204554
1604.01, 0.204694
1604.5, 0.204834
1605.0, 0.204997
1605.5, 0.205136
1606.0, 0.205136
1606.49, 0.205113
1606.99, 0.205183
1607.49, 0.205299
1607.99, 0.205439
1608.49, 0.205555
1608.99, 0.205602
1609.49, 0.205625
1609.99, 0.205741
1610.49, 0.205811
1610.99, 0.205904
1611.49, 0.206044
1611.99, 0.206207
1612.49, 0.206346
1612.99, 0.206463
1613.49, 0.206509
1614.0, 0.206439
1614.5, 0.206416
1615.0, 0.206463
1615.51, 0.206556
1616.01, 0.206719
1616.51, 0.206882
1617.02, 0.207045
1617.52, 0.207114
1618.03, 0.207184
1618.53, 0.207254
1619.04, 0.207091
1619.54, 0.207161
1620.05, 0.207417
1620.55, 0.207626
1621.06, 0.207789
1621.57, 0.207836
1622.08, 0.207929
1622.58, 0.207999
1623.09, 0.207929
1623.6, 0.208069
1624.11, 0.208208
1624.62, 0.208278
1625.13, 0.208395
1625.64, 0.208488
1626.15, 0.208511
1626.66, 0.208488
1627.17, 0.208464
1627.68, 0.208581
1628.19, 0.208651
1628.7, 0.208813
1629.21, 0.208953
1629.72, 0.208953
1630.24, 0.209000
1630.75, 0.209023
1631.26, 0.209139
1631.78, 0.209279
1632.29, 0.209325
1632.8, 0.209349
1633.32, 0.209442
1633.83, 0.209465
1634.35, 0.209581
1634.86, 0.209791
1635.38, 0.209884
1635.9, 0.209954
1636.41, 0.209977
1636.93, 0.209954
1637.45, 0.209907
1637.96, 0.209977
1638.48, 0.210163
1639.0, 0.210326
1639.52, 0.210373
1640.04, 0.210373
1640.56, 0.210443
1641.08, 0.210489
1641.59, 0.210582
1642.11, 0.210699
1642.63, 0.210792
1643.16, 0.210931
1643.68, 0.211024
1644.2, 0.211071
1644.72, 0.211118
1645.24, 0.211141
1645.76, 0.211118
1646.29, 0.211234
1646.81, 0.211374
1647.33, 0.211420
1647.86, 0.211443
1648.38, 0.211374
1648.9, 0.211490
1649.43, 0.211583
1649.95, 0.211676
1650.48, 0.211769
1651.0, 0.211793
1651.53, 0.211769
1652.06, 0.211932
1652.58, 0.211955
1653.11, 0.211862
1653.64, 0.211979
1654.17, 0.212002
1654.69, 0.212049
1655.22, 0.212118
1655.75, 0.212165
1656.28, 0.212374
1656.81, 0.212584
1657.34, 0.212537
1657.87, 0.212467
1658.4, 0.212514
1658.93, 0.212747
1659.46, 0.212793
1659.99, 0.212723
1660.52, 0.212747
1661.05, 0.212933
1661.59, 0.213026
1662.12, 0.213026
1662.65, 0.213166
1663.19, 0.213282
1663.72, 0.213259
1664.26, 0.213282
1664.79, 0.213282
1665.32, 0.213259
1665.86, 0.213445
1666.39, 0.213538
1666.93, 0.213631
1667.47, 0.213701
1668.0, 0.213794
1668.54, 0.213934
1669.08, 0.213957
1669.61, 0.213957
1670.15, 0.214050
1670.69, 0.214166
1671.23, 0.214236
1671.77, 0.214143
1672.31, 0.214283
1672.85, 0.214492
1673.39, 0.214585
1673.93, 0.214585
1674.47, 0.214678
1675.01, 0.214702
1675.55, 0.214748
1676.09, 0.214888
1676.64, 0.215004
1677.18, 0.215097
1677.72, 0.215237
1678.26, 0.215260
1678.81, 0.215191
1679.35, 0.215260
1679.89, 0.215377
1680.44, 0.215516
1680.98, 0.215563
1681.53, 0.215679
1682.07, 0.215842
1682.62, 0.215912
1683.17, 0.215819
1683.71, 0.215819
1684.26, 0.215865
1684.81, 0.216075
1685.36, 0.216215
1685.9, 0.216284
1686.45, 0.216308
1687.0, 0.216331
1687.55, 0.216424
1688.1, 0.216587
1688.65, 0.216680
1689.2, 0.216820
1689.75, 0.216913
1690.3, 0.216913
1690.85, 0.217029
1691.41, 0.217052
1691.96, 0.217122
1692.51, 0.217215
1693.06, 0.217146
1693.61, 0.217332
1694.17, 0.217425
1694.72, 0.217518
1695.28, 0.217518
1695.83, 0.217564
1696.39, 0.217634
1696.94, 0.217658
1697.5, 0.217704
1698.05, 0.217844
1698.61, 0.217914
1699.17, 0.218007
1699.72, 0.218053
1700.28, 0.218053
1700.84, 0.218170
1701.4, 0.218356
1701.95, 0.218356
1702.51, 0.218286
1703.07, 0.218426
1703.63, 0.218519
1704.19, 0.218565
1704.75, 0.218565
1705.31, 0.218612
1705.88, 0.218658
1706.44, 0.218682
1707.0, 0.218868
1707.56, 0.218914
1708.12, 0.218868
1708.69, 0.218914
1709.25, 0.219077
1709.81, 0.219101
1710.38, 0.219124
1710.94, 0.219124
1711.51, 0.219170
1712.07, 0.219194
1712.64, 0.219263
1713.2, 0.219357
1713.77, 0.219496
1714.34, 0.219543
1714.9, 0.219613
1715.47, 0.219682
1716.04, 0.219636
1716.61, 0.219636
1717.18, 0.219682
1717.74, 0.219799
1718.31, 0.219892
1718.88, 0.219915
1719.45, 0.219985
1720.02, 0.220125
1720.59, 0.220148
1721.17, 0.220194
1721.74, 0.220241
1722.31, 0.220194
1722.88, 0.220171
1723.45, 0.220241
1724.03, 0.220334
1724.6, 0.220357
1725.18, 0.220427
1725.75, 0.220544
1726.33, 0.220613
1726.9, 0.220613
1727.48, 0.220637
1728.05, 0.220683
1728.63, 0.220846
1729.2, 0.220893
1729.78, 0.220869
1730.36, 0.220846
1730.94, 0.220939
1731.51, 0.221009
1732.09, 0.220939
1732.67, 0.220939
1733.25, 0.221079
1733.83, 0.221102
1734.41, 0.221149
1734.99, 0.221242
1735.57, 0.221358
1736.15, 0.221381
1736.73, 0.221405
1737.32, 0.221428
1737.9, 0.221521
1738.48, 0.221684
1739.07, 0.221730
1739.65, 0.221661
1740.23, 0.221684
1740.82, 0.221661
1741.4, 0.221684
1741.99, 0.221800
1742.57, 0.221940
1743.16, 0.222056
1743.74, 0.222080
1744.33, 0.222243
1744.92, 0.222359
1745.51, 0.222359
1746.09, 0.222359
1746.68, 0.222405
1747.27, 0.222475
1747.86, 0.222522
1748.45, 0.222545
1749.04, 0.222638
1749.63, 0.222708
1750.22, 0.222731
1750.81, 0.222848
1751.4, 0.222917
1751.99, 0.222871
1752.59, 0.222917
1753.18, 0.223034
1753.77, 0.223057
1754.37, 0.223173
1754.96, 0.223173
1755.56, 0.223243
1756.15, 0.223290
1756.74, 0.223383
1757.34, 0.223429
1757.94, 0.223499
1758.53, 0.223569
1759.13, 0.223639
1759.73, 0.223709
1760.32, 0.223872
1760.92, 0.223941
1761.52, 0.223941
1762.12, 0.223965
1762.72, 0.223988
1763.32, 0.224081
1763.92, 0.224221
1764.52, 0.224221
1765.12, 0.224221
1765.72, 0.224314
1766.32, 0.224430
1766.92, 0.224384
1767.53, 0.224454
1768.13, 0.224477
1768.73, 0.224430
1769.34, 0.224570
1769.94, 0.224663
1770.55, 0.224686
1771.15, 0.224733
1771.76, 0.224779
1772.36, 0.224896
1772.97, 0.224896
1773.57, 0.224896
1774.18, 0.224942
1774.79, 0.225035
1775.4, 0.225082
1776.0, 0.225105
1776.61, 0.225198
1777.22, 0.225222
1777.83, 0.225222
1778.44, 0.225268
1779.05, 0.225315
1779.66, 0.225338
1780.27, 0.225431
1780.88, 0.225478
1781.5, 0.225454
1782.11, 0.225547
1782.72, 0.225594
1783.33, 0.225571
1783.95, 0.225571
1784.56, 0.225594
1785.18, 0.225710
1785.79, 0.225780
1786.41, 0.225873
1787.02, 0.225920
1787.64, 0.225920
1788.26, 0.225896
1788.87, 0.225920
1789.49, 0.225896
1790.11, 0.225990
1790.73, 0.226083
1791.35, 0.226106
1791.96, 0.226083
1792.58, 0.226083
1793.21, 0.226152
1793.83, 0.226246
1794.45, 0.226315
1795.07, 0.226385
1795.69, 0.226339
1796.31, 0.226315
1796.93, 0.226339
1797.56, 0.226362
1798.18, 0.226362
1798.8, 0.226339
1799.43, 0.226455
1800.05, 0.226618
1800.68, 0.226665
1801.3, 0.226571
1801.93, 0.226641
1802.56, 0.226665
1803.18, 0.226641
1803.81, 0.226734
1804.44, 0.226758
1805.07, 0.226758
1805.7, 0.226781
1806.33, 0.226804
1806.95, 0.226851
1807.58, 0.226897
1808.22, 0.226851
1808.85, 0.226851
1809.48, 0.226897
1810.11, 0.226921
1810.74, 0.226990
1811.38, 0.226990
1812.01, 0.226967
1812.64, 0.227037
1813.28, 0.227083
1813.91, 0.227107
1814.55, 0.227153
1815.18, 0.227246
1815.82, 0.227246
1816.45, 0.227200
1817.09, 0.227270
1817.73, 0.227386
1818.36, 0.227479
1819.0, 0.227479
1819.64, 0.227526
1820.28, 0.227735
1820.92, 0.227735
1821.56, 0.227642
1822.2, 0.227665
1822.84, 0.227665
1823.48, 0.227595
1824.12, 0.227642
1824.76, 0.227619
1825.41, 0.227758
1826.05, 0.228061
1826.69, 0.227945
1827.34, 0.227758
1827.98, 0.227921
1828.63, 0.228061
1829.27, 0.228014
1829.92, 0.227991
1830.56, 0.228154
1831.21, 0.228201
1831.86, 0.228038
1832.5, 0.228038
1833.15, 0.228084
1833.8, 0.228177
1834.45, 0.228294
1835.1, 0.228364
1835.75, 0.228526
1836.4, 0.228573
1837.05, 0.228480
1837.7, 0.228457
1838.35, 0.228294
1839.01, 0.228340
1839.66, 0.228596
1840.31, 0.228550
1840.96, 0.228573
1841.62, 0.228852
1842.27, 0.228713
1842.93, 0.228503
1843.58, 0.228457
1844.24, 0.228457
1844.9, 0.228433
1845.55, 0.228364
1846.21, 0.228550
1846.87, 0.228969
1847.53, 0.228992
1848.18, 0.228829
1848.84, 0.228596
1849.5, 0.228457
1850.16, 0.228433
1850.82, 0.228573
1851.48, 0.228596
1852.14, 0.228620
1852.81, 0.228759
1853.47, 0.228969
1854.13, 0.228899
1854.8, 0.228573
1855.46, 0.228457
1856.12, 0.228713
1856.79, 0.228852
1857.45, 0.228596
1858.12, 0.228526
1858.79, 0.228643
1859.45, 0.228922
1860.12, 0.228852
1860.79, 0.228666
1861.46, 0.228596
1862.12, 0.228480
1862.79, 0.228433
1863.46, 0.228410
1864.13, 0.228364
1864.8, 0.228317
1865.48, 0.228294
1866.15, 0.228224
1866.82, 0.228224
1867.49, 0.228410
1868.16, 0.228270
1868.84, 0.227945
1869.51, 0.227805
1870.19, 0.227921
1870.86, 0.227968
1871.54, 0.227502
1872.21, 0.227270
1872.89, 0.227456
1873.56, 0.227130
1874.24, 0.226548
1874.92, 0.226199
1875.6, 0.225990
1876.28, 0.225850
1876.96, 0.225734
1877.64, 0.225315
1878.32, 0.224966
1879.0, 0.224640
1879.68, 0.224337
1880.36, 0.224104
1881.04, 0.223848
1881.73, 0.223453
1882.41, 0.223127
1883.09, 0.222894
1883.78, 0.222778
1884.46, 0.222359
1885.15, 0.221870
1885.83, 0.221474
1886.52, 0.221218
1887.21, 0.220893
1887.89, 0.220520
1888.58, 0.220218
1889.27, 0.220055
1889.96, 0.219938
1890.65, 0.219543
1891.34, 0.219124
1892.03, 0.218891
1892.72, 0.218612
1893.41, 0.218286
1894.1, 0.217820
1894.79, 0.217378
1895.49, 0.216936
1896.18, 0.216494
1896.87, 0.216168
1897.57, 0.215772
1898.26, 0.215307
1898.96, 0.215004
1899.65, 0.214748
1900.35, 0.214260
1901.05, 0.213678
1901.74, 0.213259
1902.44, 0.213142
1903.14, 0.212840
1903.84, 0.212421
1904.54, 0.212351
1905.24, 0.212444
1905.94, 0.212398
1906.64, 0.212305
1907.34, 0.212165
1908.04, 0.212118
1908.75, 0.212258
1909.45, 0.212398
