Database of Origin,USGS Spectral Database
Sample Description,See USGS database for additional info
Date Added,2017-02-22 02:49:16.320742

Data ID,USGS_thu02          
Sample ID,thuringite_smr15.21765
Mineral Name,thuringite

Wavelength
1374.38, 0.165830
1374.74, 0.166368
1375.11, 0.166829
1375.47, 0.166752
1375.84, 0.166214
1376.2, 0.166137
1376.57, 0.166521
1376.93, 0.167597
1377.3, 0.168289
1377.67, 0.168135
1378.03, 0.167674
1378.4, 0.167136
1378.76, 0.167828
1379.13, 0.167905
1379.5, 0.167828
1379.87, 0.167751
1380.23, 0.168443
1380.6, 0.169134
1380.97, 0.168827
1381.34, 0.168519
1381.7, 0.168212
1382.07, 0.168519
1382.44, 0.169057
1382.81, 0.169365
1383.18, 0.169518
1383.55, 0.169211
1383.92, 0.169134
1384.29, 0.169365
1384.66, 0.169903
1385.03, 0.170133
1385.4, 0.170517
1385.77, 0.170364
1386.14, 0.169672
1386.51, 0.169595
1386.88, 0.170210
1387.25, 0.170517
1387.62, 0.170825
1387.99, 0.171055
1388.36, 0.170978
1388.74, 0.170902
1389.11, 0.171209
1389.48, 0.170594
1389.85, 0.170133
1390.23, 0.170825
1390.6, 0.171516
1390.97, 0.171516
1391.35, 0.171286
1391.72, 0.170517
1392.09, 0.170594
1392.47, 0.170902
1392.84, 0.170671
1393.21, 0.170978
1393.59, 0.171055
1393.96, 0.170517
1394.34, 0.170210
1394.71, 0.169442
1395.09, 0.169134
1395.46, 0.169442
1395.84, 0.169595
1396.22, 0.169134
1396.59, 0.168827
1396.97, 0.169288
1397.35, 0.169518
1397.72, 0.169057
1398.1, 0.168596
1398.48, 0.168443
1398.85, 0.168058
1399.23, 0.167213
1399.61, 0.166829
1399.99, 0.166906
1400.37, 0.166598
1400.74, 0.166214
1401.12, 0.165984
1401.5, 0.165215
1401.88, 0.163678
1402.26, 0.163063
1402.64, 0.162910
1403.02, 0.162141
1403.4, 0.161373
1403.78, 0.160835
1404.16, 0.160374
1404.54, 0.159298
1404.92, 0.159221
1405.3, 0.158991
1405.68, 0.158683
1406.06, 0.158530
1406.44, 0.158453
1406.83, 0.158376
1407.21, 0.158607
1407.59, 0.158453
1407.97, 0.158222
1408.35, 0.157838
1408.74, 0.157608
1409.12, 0.157454
1409.5, 0.157146
1409.89, 0.156839
1410.27, 0.156455
1410.65, 0.155610
1411.04, 0.154841
1411.42, 0.154534
1411.81, 0.154226
1412.19, 0.153227
1412.58, 0.152690
1412.96, 0.152920
1413.35, 0.152920
1413.73, 0.152843
1414.12, 0.153458
1414.5, 0.153842
1414.89, 0.154303
1415.28, 0.155302
1415.66, 0.156071
1416.05, 0.157223
1416.44, 0.158376
1416.82, 0.159144
1417.21, 0.160604
1417.6, 0.162064
1417.98, 0.162833
1418.37, 0.163755
1418.76, 0.164677
1419.15, 0.165676
1419.54, 0.166983
1419.93, 0.168135
1420.32, 0.168519
1420.71, 0.169211
1421.09, 0.170441
1421.48, 0.170978
1421.88, 0.171286
1422.27, 0.171824
1422.66, 0.172208
1423.05, 0.172746
1423.44, 0.173284
1423.83, 0.173899
1424.22, 0.174436
1424.61, 0.174590
1425.0, 0.174821
1425.39, 0.174667
1425.78, 0.174821
1426.18, 0.175282
1426.57, 0.175973
1426.96, 0.176050
1427.36, 0.176204
1427.75, 0.176588
1428.14, 0.176972
1428.54, 0.177049
1428.93, 0.176972
1429.32, 0.176819
1429.72, 0.176588
1430.11, 0.176511
1430.51, 0.176742
1430.9, 0.177356
1431.3, 0.177433
1431.69, 0.177356
1432.09, 0.177587
1432.48, 0.177356
1432.88, 0.177280
1433.28, 0.177971
1433.67, 0.178279
1434.07, 0.178202
1434.46, 0.178432
1434.86, 0.178355
1435.26, 0.178125
1435.66, 0.177818
1436.05, 0.177356
1436.45, 0.177741
1436.85, 0.178355
1437.25, 0.178202
1437.65, 0.178202
1438.05, 0.178202
1438.44, 0.178279
1438.84, 0.178355
1439.24, 0.178048
1439.64, 0.178279
1440.04, 0.178509
1440.44, 0.178355
1440.84, 0.178740
1441.24, 0.178970
1441.65, 0.178663
1442.05, 0.178817
1442.45, 0.179431
1442.85, 0.179585
1443.25, 0.179585
1443.65, 0.179662
1444.05, 0.179278
1444.46, 0.179124
1444.86, 0.179278
1445.26, 0.179662
1445.67, 0.179969
1446.07, 0.179739
1446.47, 0.179816
1446.88, 0.180123
1447.28, 0.180277
1447.68, 0.180353
1448.09, 0.180353
1448.49, 0.180507
1448.9, 0.180353
1449.3, 0.180507
1449.71, 0.180661
1450.11, 0.180584
1450.52, 0.180891
1450.93, 0.181276
1451.33, 0.181506
1451.74, 0.181660
1452.14, 0.181890
1452.55, 0.181583
1452.96, 0.181813
1453.36, 0.182198
1453.77, 0.182351
1454.18, 0.182275
1454.59, 0.182198
1455.0, 0.182351
1455.41, 0.182505
1455.81, 0.182275
1456.22, 0.182736
1456.63, 0.182966
1457.04, 0.183120
1457.45, 0.183274
1457.86, 0.183197
1458.27, 0.183581
1458.68, 0.183965
1459.09, 0.184272
1459.5, 0.184272
1459.91, 0.184580
1460.32, 0.185041
1460.74, 0.184887
1461.15, 0.184887
1461.56, 0.184810
1461.97, 0.184964
1462.39, 0.185425
1462.8, 0.185733
1463.21, 0.185425
1463.62, 0.185041
1464.04, 0.185579
1464.45, 0.186117
1464.86, 0.186117
1465.28, 0.186194
1465.69, 0.186578
1466.11, 0.186732
1466.52, 0.186347
1466.94, 0.186424
1467.35, 0.186655
1467.77, 0.186655
1468.18, 0.187116
1468.6, 0.187423
1469.02, 0.187423
1469.43, 0.187730
1469.85, 0.188192
1470.27, 0.187961
1470.68, 0.187730
1471.1, 0.187654
1471.52, 0.187577
1471.94, 0.187884
1472.35, 0.188115
1472.77, 0.188806
1473.19, 0.189344
1473.61, 0.189267
1474.03, 0.189652
1474.45, 0.189575
1474.87, 0.188960
1475.29, 0.189191
1475.71, 0.189882
1476.13, 0.190189
1476.55, 0.189959
1476.97, 0.189959
1477.39, 0.189959
1477.81, 0.190497
1478.23, 0.190727
1478.65, 0.190574
1479.07, 0.190497
1479.5, 0.190958
1479.92, 0.190958
1480.34, 0.191265
1480.76, 0.191726
1481.19, 0.191803
1481.61, 0.192034
1482.03, 0.192418
1482.46, 0.192418
1482.88, 0.192187
1483.31, 0.192187
1483.73, 0.192264
1484.16, 0.192034
1484.58, 0.192034
1485.01, 0.192264
1485.43, 0.192649
1485.86, 0.192879
1486.28, 0.193033
1486.71, 0.193571
1487.14, 0.193878
1487.56, 0.193647
1487.99, 0.193647
1488.42, 0.193878
1488.84, 0.194185
1489.27, 0.194646
1489.7, 0.194339
1490.13, 0.193955
1490.56, 0.194493
1490.98, 0.194954
1491.41, 0.195031
1491.84, 0.195031
1492.27, 0.195261
1492.7, 0.195645
1493.13, 0.195722
1493.56, 0.195569
1493.99, 0.195492
1494.42, 0.195645
1494.85, 0.196183
1495.29, 0.196414
1495.72, 0.196568
1496.15, 0.196568
1496.58, 0.196568
1497.01, 0.196568
1497.44, 0.196952
1497.88, 0.196952
1498.31, 0.197182
1498.74, 0.197567
1499.18, 0.197490
1499.61, 0.197490
1500.04, 0.197720
1500.48, 0.197413
1500.91, 0.197336
1501.35, 0.197643
1501.78, 0.198258
1502.22, 0.198566
1502.65, 0.198566
1503.09, 0.199027
1503.53, 0.199718
1503.96, 0.199718
1504.4, 0.199334
1504.83, 0.199103
1505.27, 0.199411
1505.71, 0.199641
1506.15, 0.199257
1506.58, 0.198950
1507.02, 0.198950
1507.46, 0.198873
1507.9, 0.199488
1508.34, 0.200256
1508.78, 0.200333
1509.21, 0.200487
1509.66, 0.200948
1510.09, 0.200871
1510.53, 0.200948
1510.97, 0.201101
1511.42, 0.201178
1511.86, 0.201025
1512.3, 0.201025
1512.74, 0.201486
1513.18, 0.201947
1513.62, 0.201793
1514.06, 0.202024
1514.51, 0.202561
1514.95, 0.202638
1515.39, 0.202561
1515.83, 0.202638
1516.28, 0.202638
1516.72, 0.202715
1517.16, 0.202869
1517.61, 0.202792
1518.05, 0.202715
1518.5, 0.202715
1518.94, 0.202715
1519.39, 0.203099
1519.83, 0.203484
1520.28, 0.203868
1520.73, 0.204175
1521.17, 0.204329
1521.62, 0.204098
1522.07, 0.203868
1522.51, 0.203868
1522.96, 0.204098
1523.41, 0.204329
1523.85, 0.204406
1524.3, 0.204483
1524.75, 0.204944
1525.2, 0.205174
1525.65, 0.205174
1526.1, 0.205328
1526.55, 0.205405
1527.0, 0.205866
1527.45, 0.205712
1527.9, 0.205174
1528.35, 0.205328
1528.8, 0.205789
1529.25, 0.206096
1529.7, 0.206327
1530.15, 0.206557
1530.6, 0.206634
1531.05, 0.206788
1531.51, 0.206942
1531.96, 0.206942
1532.41, 0.206711
1532.87, 0.206788
1533.32, 0.207018
1533.77, 0.207095
1534.23, 0.207172
1534.68, 0.207479
1535.14, 0.208094
1535.59, 0.207787
1536.05, 0.207864
1536.5, 0.208171
1536.96, 0.208555
1537.41, 0.208632
1537.87, 0.208555
1538.32, 0.208709
1538.78, 0.209170
1539.24, 0.209247
1539.7, 0.209170
1540.15, 0.209477
1540.61, 0.209631
1541.07, 0.209862
1541.53, 0.210092
1541.98, 0.210015
1542.44, 0.210323
1542.9, 0.210707
1543.36, 0.210707
1543.82, 0.210630
1544.28, 0.210630
1544.74, 0.210937
1545.2, 0.211168
1545.66, 0.211475
1546.12, 0.211398
1546.59, 0.211629
1547.05, 0.211783
1547.51, 0.211860
1547.97, 0.212013
1548.43, 0.212321
1548.9, 0.212628
1549.36, 0.212859
1549.82, 0.212705
1550.29, 0.212705
1550.75, 0.212859
1551.21, 0.213166
1551.68, 0.213550
1552.14, 0.213781
1552.61, 0.213934
1553.07, 0.214395
1553.54, 0.214472
1554.0, 0.214395
1554.47, 0.214626
1554.93, 0.214703
1555.4, 0.214780
1555.87, 0.215164
1556.34, 0.215702
1556.8, 0.215702
1557.27, 0.215625
1557.74, 0.215779
1558.21, 0.216163
1558.68, 0.216624
1559.14, 0.216624
1559.61, 0.216701
1560.08, 0.216854
1560.55, 0.216931
1561.02, 0.217546
1561.49, 0.218084
1561.96, 0.217546
1562.43, 0.217700
1562.9, 0.218007
1563.38, 0.218161
1563.85, 0.218699
1564.32, 0.219083
1564.79, 0.219467
1565.26, 0.219083
1565.74, 0.219006
1566.21, 0.219237
1566.68, 0.219467
1567.16, 0.219544
1567.63, 0.219851
1568.1, 0.220312
1568.58, 0.220159
1569.05, 0.220236
1569.53, 0.220312
1570.0, 0.220697
1570.48, 0.221235
1570.96, 0.221465
1571.43, 0.221542
1571.91, 0.221772
1572.39, 0.221849
1572.86, 0.222003
1573.34, 0.222464
1573.82, 0.222695
1574.3, 0.222618
1574.77, 0.223002
1575.25, 0.223617
1575.73, 0.223847
1576.21, 0.223924
1576.69, 0.224231
1577.17, 0.224462
1577.65, 0.224462
1578.13, 0.224923
1578.61, 0.225154
1579.09, 0.225154
1579.57, 0.225154
1580.05, 0.225538
1580.54, 0.225922
1581.02, 0.225692
1581.5, 0.225692
1581.98, 0.225999
1582.47, 0.226229
1582.95, 0.226537
1583.43, 0.226767
1583.92, 0.227152
1584.4, 0.227382
1584.88, 0.227459
1585.37, 0.227689
1585.85, 0.228151
1586.34, 0.228151
1586.82, 0.227997
1587.31, 0.228304
1587.8, 0.228381
1588.28, 0.228612
1588.77, 0.229303
1589.26, 0.229457
1589.74, 0.229226
1590.23, 0.229534
1590.72, 0.229841
1591.21, 0.230302
1591.7, 0.230610
1592.19, 0.230840
1592.67, 0.230994
1593.16, 0.231071
1593.65, 0.231301
1594.14, 0.231685
1594.63, 0.231762
1595.12, 0.231993
1595.61, 0.232300
1596.11, 0.232300
1596.6, 0.232915
1597.09, 0.233530
1597.58, 0.233606
1598.08, 0.233453
1598.57, 0.233453
1599.06, 0.233914
1599.55, 0.234068
1600.05, 0.234144
1600.54, 0.234759
1601.04, 0.235220
1601.53, 0.235143
1602.03, 0.235297
1602.52, 0.235681
1603.02, 0.235835
1603.51, 0.235989
1604.01, 0.236219
1604.5, 0.236603
1605.0, 0.236603
1605.5, 0.236680
1606.0, 0.236911
1606.49, 0.237141
1606.99, 0.237372
1607.49, 0.237449
1607.99, 0.237910
1608.49, 0.238448
1608.99, 0.238371
1609.49, 0.238294
1609.99, 0.238909
1610.49, 0.239370
1610.99, 0.239600
1611.49, 0.239677
1611.99, 0.239523
1612.49, 0.239600
1612.99, 0.240138
1613.49, 0.240907
1614.0, 0.241214
1614.5, 0.241445
1615.0, 0.241675
1615.51, 0.241983
1616.01, 0.242136
1616.51, 0.242136
1617.02, 0.242520
1617.52, 0.242828
1618.03, 0.242905
1618.53, 0.243058
1619.04, 0.243673
1619.54, 0.243980
1620.05, 0.243673
1620.55, 0.243596
1621.06, 0.243980
1621.57, 0.244518
1622.08, 0.244979
1622.58, 0.245210
1623.09, 0.245440
1623.6, 0.245825
1624.11, 0.246055
1624.62, 0.246286
1625.13, 0.246593
1625.64, 0.246516
1626.15, 0.246670
1626.66, 0.246977
1627.17, 0.247285
1627.68, 0.247592
1628.19, 0.247900
1628.7, 0.248130
1629.21, 0.248361
1629.72, 0.248514
1630.24, 0.248745
1630.75, 0.249129
1631.26, 0.249513
1631.78, 0.249744
1632.29, 0.249974
1632.8, 0.250205
1633.32, 0.250435
1633.83, 0.250743
1634.35, 0.251050
1634.86, 0.251357
1635.38, 0.251665
1635.9, 0.251819
1636.41, 0.251972
1636.93, 0.252280
1637.45, 0.252510
1637.96, 0.253125
1638.48, 0.253663
1639.0, 0.253740
1639.52, 0.253663
1640.04, 0.253740
1640.56, 0.254124
1641.08, 0.254431
1641.59, 0.254662
1642.11, 0.254969
1642.63, 0.255507
1643.16, 0.255891
1643.68, 0.255968
1644.2, 0.256199
1644.72, 0.256352
1645.24, 0.256506
1645.76, 0.256660
1646.29, 0.257198
1646.81, 0.257428
1647.33, 0.257275
1647.86, 0.257505
1648.38, 0.257582
1648.9, 0.257889
1649.43, 0.258504
1649.95, 0.258888
1650.48, 0.259042
1651.0, 0.259119
1651.53, 0.259119
1652.06, 0.259349
1652.58, 0.259887
1653.11, 0.260041
1653.64, 0.260118
1654.17, 0.260502
1654.69, 0.260502
1655.22, 0.260733
1655.75, 0.260963
1656.28, 0.261270
1656.81, 0.261885
1657.34, 0.262039
1657.87, 0.261962
1658.4, 0.262193
1658.93, 0.262577
1659.46, 0.262577
1659.99, 0.262654
1660.52, 0.263192
1661.05, 0.263422
1661.59, 0.263576
1662.12, 0.263960
1662.65, 0.264267
1663.19, 0.264344
1663.72, 0.264498
1664.26, 0.264805
1664.79, 0.264959
1665.32, 0.265420
1665.86, 0.265881
1666.39, 0.265881
1666.93, 0.266188
1667.47, 0.266496
1668.0, 0.266650
1668.54, 0.266650
1669.08, 0.267111
1669.61, 0.267495
1670.15, 0.267802
1670.69, 0.267956
1671.23, 0.268110
1671.77, 0.268263
1672.31, 0.268647
1672.85, 0.268878
1673.39, 0.268955
1673.93, 0.269416
1674.47, 0.269877
1675.01, 0.269800
1675.55, 0.270107
1676.09, 0.270184
1676.64, 0.270107
1677.18, 0.270338
1677.72, 0.270722
1678.26, 0.271030
1678.81, 0.271337
1679.35, 0.271568
1679.89, 0.271875
1680.44, 0.271875
1680.98, 0.272029
1681.53, 0.272566
1682.07, 0.272874
1682.62, 0.273028
1683.17, 0.273181
1683.71, 0.273412
1684.26, 0.273796
1684.81, 0.274103
1685.36, 0.274257
1685.9, 0.274564
1686.45, 0.274795
1687.0, 0.275026
1687.55, 0.275410
1688.1, 0.275640
1688.65, 0.275640
1689.2, 0.276101
1689.75, 0.276716
1690.3, 0.276716
1690.85, 0.276870
1691.41, 0.277331
1691.96, 0.277408
1692.51, 0.277408
1693.06, 0.277946
1693.61, 0.278253
1694.17, 0.278484
1694.72, 0.278484
1695.28, 0.278868
1695.83, 0.279252
1696.39, 0.279559
1696.94, 0.280020
1697.5, 0.280020
1698.05, 0.280020
1698.61, 0.280328
1699.17, 0.280712
1699.72, 0.280943
1700.28, 0.281327
1700.84, 0.281480
1701.4, 0.281480
1701.95, 0.281711
1702.51, 0.281942
1703.07, 0.282326
1703.63, 0.282633
1704.19, 0.282940
1704.75, 0.283478
1705.31, 0.283786
1705.88, 0.283709
1706.44, 0.284093
1707.0, 0.284708
1707.56, 0.284938
1708.12, 0.284862
1708.69, 0.285169
1709.25, 0.285476
1709.81, 0.285476
1710.38, 0.285707
1710.94, 0.286168
1711.51, 0.286168
1712.07, 0.286398
1712.64, 0.286552
1713.2, 0.286629
1713.77, 0.287167
1714.34, 0.287859
1714.9, 0.288243
1715.47, 0.288550
1716.04, 0.288704
1716.61, 0.288627
1717.18, 0.288627
1717.74, 0.288858
1718.31, 0.289395
1718.88, 0.289780
1719.45, 0.289856
1720.02, 0.290010
1720.59, 0.290318
1721.17, 0.290471
1721.74, 0.290318
1722.31, 0.290394
1722.88, 0.290702
1723.45, 0.291240
1724.03, 0.291470
1724.6, 0.291701
1725.18, 0.291931
1725.75, 0.291854
1726.33, 0.292162
1726.9, 0.292777
1727.48, 0.293161
1728.05, 0.293468
1728.63, 0.293545
1729.2, 0.293545
1729.78, 0.293622
1730.36, 0.293622
1730.94, 0.294083
1731.51, 0.294544
1732.09, 0.294775
1732.67, 0.295005
1733.25, 0.295005
1733.83, 0.295312
1734.41, 0.295620
1734.99, 0.295697
1735.57, 0.295850
1736.15, 0.296235
1736.73, 0.296619
1737.32, 0.296696
1737.9, 0.296926
1738.48, 0.297080
1739.07, 0.297157
1739.65, 0.297310
1740.23, 0.297618
1740.82, 0.297848
1741.4, 0.298156
1741.99, 0.298309
1742.57, 0.298386
1743.16, 0.299001
1743.74, 0.299462
1744.33, 0.299616
1744.92, 0.299693
1745.51, 0.299693
1746.09, 0.299616
1746.68, 0.300000
1747.27, 0.300384
1747.86, 0.300615
1748.45, 0.300922
1749.04, 0.300922
1749.63, 0.301076
1750.22, 0.301383
1750.81, 0.301691
1751.4, 0.301921
1751.99, 0.302075
1752.59, 0.302459
1753.18, 0.302843
1753.77, 0.303227
1754.37, 0.303381
1754.96, 0.303381
1755.56, 0.303612
1756.15, 0.303919
1756.74, 0.303842
1757.34, 0.304150
1757.94, 0.304534
1758.53, 0.304764
1759.13, 0.304841
1759.73, 0.305072
1760.32, 0.305302
1760.92, 0.305379
1761.52, 0.305533
1762.12, 0.305686
1762.72, 0.305994
1763.32, 0.306608
1763.92, 0.306839
1764.52, 0.307070
1765.12, 0.307146
1765.72, 0.307223
1766.32, 0.307454
1766.92, 0.307531
1767.53, 0.307838
1768.13, 0.308299
1768.73, 0.308530
1769.34, 0.308837
1769.94, 0.309068
1770.55, 0.309221
1771.15, 0.309452
1771.76, 0.309759
1772.36, 0.310220
1772.97, 0.310451
1773.57, 0.310451
1774.18, 0.310528
1774.79, 0.310604
1775.4, 0.310989
1776.0, 0.311450
1776.61, 0.311911
1777.22, 0.312064
1777.83, 0.312218
1778.44, 0.312295
1779.05, 0.312449
1779.66, 0.312756
1780.27, 0.312833
1780.88, 0.312910
1781.5, 0.313524
1782.11, 0.313832
1782.72, 0.313909
1783.33, 0.313986
1783.95, 0.314293
1784.56, 0.314523
1785.18, 0.314908
1785.79, 0.315369
1786.41, 0.315522
1787.02, 0.315676
1787.64, 0.315907
1788.26, 0.315984
1788.87, 0.315907
1789.49, 0.316060
1790.11, 0.316368
1790.73, 0.316675
1791.35, 0.316675
1791.96, 0.316829
1792.58, 0.317290
1793.21, 0.317520
1793.83, 0.317444
1794.45, 0.317367
1795.07, 0.317751
1795.69, 0.318058
1796.31, 0.318212
1796.93, 0.318289
1797.56, 0.318596
1798.18, 0.319288
1798.8, 0.319441
1799.43, 0.319595
1800.05, 0.319826
1800.68, 0.319595
1801.3, 0.319672
1801.93, 0.320133
1802.56, 0.320440
1803.18, 0.320517
1803.81, 0.320671
1804.44, 0.321055
1805.07, 0.321363
1805.7, 0.321286
1806.33, 0.321286
1806.95, 0.321363
1807.58, 0.321286
1808.22, 0.321439
1808.85, 0.321977
1809.48, 0.322285
1810.11, 0.322285
1810.74, 0.322362
1811.38, 0.322823
1812.01, 0.323130
1812.64, 0.322976
1813.28, 0.322900
1813.91, 0.323053
1814.55, 0.323130
1815.18, 0.323284
1815.82, 0.323591
1816.45, 0.323975
1817.09, 0.324206
1817.73, 0.324206
1818.36, 0.324283
1819.0, 0.324436
1819.64, 0.324436
1820.28, 0.324821
1820.92, 0.325051
1821.56, 0.325205
1822.2, 0.325359
1822.84, 0.325666
1823.48, 0.325896
1824.12, 0.325743
1824.76, 0.325820
1825.41, 0.326127
1826.05, 0.326511
1826.69, 0.326742
1827.34, 0.326588
1827.98, 0.326511
1828.63, 0.326742
1829.27, 0.326819
1829.92, 0.327126
1830.56, 0.327280
1831.21, 0.327356
1831.86, 0.327433
1832.5, 0.327433
1833.15, 0.327587
1833.8, 0.328048
1834.45, 0.328432
1835.1, 0.328893
1835.75, 0.328663
1836.4, 0.328663
1837.05, 0.328740
1837.7, 0.328817
1838.35, 0.329124
1839.01, 0.329124
1839.66, 0.329508
1840.31, 0.329892
1840.96, 0.329739
1841.62, 0.329969
1842.27, 0.330430
1842.93, 0.330507
1843.58, 0.330353
1844.24, 0.330353
1844.9, 0.330584
1845.55, 0.330814
1846.21, 0.330738
1846.87, 0.330968
1847.53, 0.331352
1848.18, 0.331506
1848.84, 0.331429
1849.5, 0.331429
1850.16, 0.331506
1850.82, 0.331737
1851.48, 0.332044
1852.14, 0.332044
1852.81, 0.331967
1853.47, 0.332121
1854.13, 0.332351
1854.8, 0.332428
1855.46, 0.332505
1856.12, 0.332582
1856.79, 0.332736
1857.45, 0.332812
1858.12, 0.332966
1858.79, 0.332966
1859.45, 0.333350
1860.12, 0.333581
1860.79, 0.333427
1861.46, 0.333504
1862.12, 0.333427
1862.79, 0.333273
1863.46, 0.333273
1864.13, 0.333350
1864.8, 0.333581
1865.48, 0.333965
1866.15, 0.334119
1866.82, 0.333965
1867.49, 0.334119
1868.16, 0.334503
1868.84, 0.334503
1869.51, 0.334426
1870.19, 0.334657
1870.86, 0.335041
1871.54, 0.334964
1872.21, 0.334964
1872.89, 0.335271
1873.56, 0.335271
1874.24, 0.335195
1874.92, 0.335118
1875.6, 0.335195
1876.28, 0.335348
1876.96, 0.335348
1877.64, 0.335425
1878.32, 0.335579
1879.0, 0.335809
1879.68, 0.335809
1880.36, 0.335656
1881.04, 0.335886
1881.73, 0.336040
1882.41, 0.336117
1883.09, 0.336270
1883.78, 0.336424
1884.46, 0.336578
1885.15, 0.336655
1885.83, 0.336655
1886.52, 0.336808
1887.21, 0.336962
1887.89, 0.337193
1888.58, 0.337269
1889.27, 0.337116
1889.96, 0.337500
1890.65, 0.337654
1891.34, 0.337577
1892.03, 0.337961
1892.72, 0.338422
1893.41, 0.338422
1894.1, 0.338576
1894.79, 0.338422
1895.49, 0.338653
1896.18, 0.338960
1896.87, 0.339037
1897.57, 0.339344
1898.26, 0.339421
1898.96, 0.339498
1899.65, 0.339882
1900.35, 0.340189
