Database of Origin, USGS Spectral Database
Sample Description, See USGS database for additional info
Date Added,2016-08-10 02:54:17.171703

Data ID,USGS_hed01          
Sample ID, hedenbergite_hs10.9164
Mineral Name, hedenbergite
Material Class,Inosilicate

Wavelength
229.1, 0.0283240
236.1, 0.0296810
242.1, 0.0286030
248.1, 0.0298510
253.6, 0.0294610
258.6, 0.0291470
263.6, 0.0290640
268.6, 0.0292380
273.1, 0.0294840
277.1, 0.0299640
281.1, 0.0301480
285.1, 0.0308610
289.1, 0.0313630
293.1, 0.0323510
297.1, 0.0327450
301.1, 0.0343180
305.1, 0.0352690
309.1, 0.0368880
313.1, 0.0383450
317.1, 0.0395630
321.1, 0.0404600
325.1, 0.0422580
329.1, 0.0442100
333.1, 0.0457690
337.1, 0.0466740
341.1, 0.0472410
345.1, 0.0485190
349.1, 0.0492190
353.1, 0.0509830
357.1, 0.0517760
360.6, 0.0529610
363.6, 0.0537620
366.6, 0.0540020
369.6, 0.0547690
372.6, 0.0553560
375.6, 0.0559530
378.6, 0.0562620
381.1, 0.0564550
383.1, 0.0566110
385.1, 0.0566120
387.1, 0.0583220
389.1, 0.0575920
391.1, 0.0586200
393.1, 0.0592130
395.1, 0.0586070
397.1, 0.0591440
399.1, 0.0599790
401.1, 0.0601960
403.1, 0.0602900
405.1, 0.0606130
407.1, 0.0608410
409.1, 0.0612000
411.1, 0.0609820
412.8, 0.0623360
415.8, 0.0624500
418.8, 0.0630750
421.8, 0.0639850
424.8, 0.0640510
427.8, 0.0648780
430.8, 0.0659090
433.8, 0.0656510
436.8, 0.0663190
439.8, 0.0667520
442.8, 0.0681890
445.8, 0.0676890
448.8, 0.0680640
451.3, 0.0685450
453.3, 0.0691180
455.3, 0.0697420
457.3, 0.0711480
459.3, 0.0701800
461.3, 0.0718090
463.3, 0.0716120
465.3, 0.0722740
467.3, 0.0726320
469.3, 0.0727000
471.3, 0.0738280
473.3, 0.0736630
475.3, 0.0754580
477.3, 0.0749010
479.3, 0.0754690
481.3, 0.0759410
483.3, 0.0766330
485.3, 0.0765700
487.3, 0.0772250
489.3, 0.0768050
491.3, 0.0773910
493.3, 0.0777000
495.3, 0.0795060
497.3, 0.0789200
499.3, 0.0797570
501.3, 0.0798020
503.3, 0.0803730
505.3, 0.0804120
507.3, 0.0812100
509.3, 0.0816330
511.3, 0.0821470
513.3, 0.0827990
515.3, 0.0842060
517.3, 0.0839050
519.3, 0.0841360
521.3, 0.0846160
523.3, 0.0850390
525.3, 0.0852210
527.3, 0.0859940
529.3, 0.0867640
531.3, 0.0870990
533.3, 0.0876410
535.3, 0.0879940
537.3, 0.0881600
539.3, 0.0889750
541.3, 0.0894590
543.3, 0.0904420
545.3, 0.0904350
547.3, 0.0908510
549.3, 0.0912730
551.3, 0.0917760
553.3, 0.0923170
555.3, 0.0919360
557.3, 0.0924020
559.3, 0.0932780
561.3, 0.0936880
563.3, 0.0948110
565.3, 0.0950450
567.3, 0.0942780
569.3, 0.0948200
571.3, 0.0954840
573.3, 0.0949290
575.3, 0.0952570
577.3, 0.0958540
579.3, 0.0955300
581.3, 0.0957810
583.3, 0.0972500
585.3, 0.0966950
587.3, 0.0967700
589.3, 0.0966830
591.3, 0.0975160
593.3, 0.0975600
595.3, 0.0968770
597.3, 0.0977220
599.3, 0.0974750
601.1, 0.0978870
602.7, 0.0977390
604.3, 0.0976460
605.9, 0.0979540
607.5, 0.0974730
609.1, 0.0977730
610.7, 0.0984470
612.3, 0.0983670
613.9, 0.0983920
615.5, 0.0981050
617.1, 0.0985170
618.7, 0.0984230
620.3, 0.0986790
621.9, 0.0984230
623.5, 0.0984800
625.1, 0.0987600
626.7, 0.0990590
628.3, 0.0987040
629.9, 0.0990990
631.7, 0.0994330
633.7, 0.0993160
635.7, 0.0990720
637.7, 0.0994340
639.7, 0.0997420
641.7, 0.0997780
643.7, 0.0994090
645.7, 0.100117
647.7, 0.0999090
649.7, 0.100165
651.7, 0.100159
653.7, 0.100717
655.7, 0.100411
657.7, 0.100362
659.7, 0.100106
661.7, 0.100319
663.7, 0.100364
665.7, 0.100107
667.7, 0.100934
670.2, 0.100661
673.2, 0.101065
676.2, 0.100336
679.2, 0.100229
682.2, 0.101579
685.2, 0.100818
688.2, 0.100528
691.2, 0.100380
694.2, 0.100294
697.2, 0.100186
700.2, 0.0994160
702.0, 0.100522
704.0, 0.100021
706.0, 0.100088
708.0, 0.0999990
710.0, 0.100229
712.0, 0.100172
714.0, 0.0999680
716.0, 0.100482
718.0, 0.100060
720.0, 0.100131
722.0, 0.0999390
724.0, 0.100235
726.0, 0.100442
728.0, 0.0995740
730.0, 0.0997350
732.0, 0.0996970
734.0, 0.0999500
736.0, 0.0998150
738.0, 0.100682
740.0, 0.100166
742.0, 0.100004
744.0, 0.100485
746.0, 0.0997770
748.0, 0.100220
750.5, 0.100252
753.5, 0.100065
756.5, 0.100307
759.5, 0.100558
762.5, 0.100488
765.5, 0.100344
768.5, 0.100806
771.5, 0.0999960
774.5, 0.100552
777.5, 0.101290
781.0, 0.101083
785.0, 0.101127
789.0, 0.101756
793.0, 0.102246
797.0, 0.101882
801.5, 0.102363
806.5, 0.102703
811.5, 0.102797
816.5, 0.103336
822.0, 0.104112
828.0, 0.103965
835.0, 0.104522
843.0, 0.103373
851.0, 0.104830
859.0, 0.108566
871.0, 0.110643
883.0, 0.106274
894.0, 0.105647
904.0, 0.102636
914.0, 0.102300
924.0, 0.104181
933.0, 0.101806
941.0, 0.100638
949.0, 0.0996800
957.0, 0.0998660
964.0, 0.100260
970.0, 0.100084
976.0, 0.100217
982.0, 0.101008
988.0, 0.0989110
994.0, 0.0993210
1000.0, 0.0990860
1006.0, 0.100832
1012.0, 0.0993650
1018.0, 0.0990420
1023.5, 0.100113
1028.5, 0.100069
1033.5, 0.101467
1038.5, 0.100966
1043.5, 0.102926
1048.5, 0.101927
1053.5, 0.102961
1058.5, 0.103051
1063.5, 0.102268
1068.5, 0.103580
1073.5, 0.102256
1078.5, 0.103997
1083.5, 0.103076
1088.5, 0.103988
1093.5, 0.104593
1098.5, 0.103835
1103.5, 0.104046
1108.5, 0.104086
1113.5, 0.104534
1118.5, 0.104019
1123.5, 0.103899
1128.5, 0.103368
1133.5, 0.104818
1138.5, 0.104232
1143.5, 0.105276
1148.5, 0.104657
1153.5, 0.104074
1158.5, 0.106175
1163.5, 0.104660
1168.5, 0.105917
1173.5, 0.104761
1178.5, 0.105705
1183.5, 0.104824
1188.5, 0.105713
1193.5, 0.107328
1198.5, 0.106743
1203.5, 0.107851
1208.5, 0.107499
1213.5, 0.107550
1218.5, 0.108255
1223.5, 0.108821
1228.5, 0.109072
1233.5, 0.110545
1238.5, 0.110139
1243.5, 0.111512
1248.5, 0.112963
1253.5, 0.112700
1258.5, 0.113692
1263.5, 0.115576
1268.5, 0.114460
1273.5, 0.117282
1278.5, 0.117819
1283.5, 0.116591
1288.5, 0.119863
1293.5, 0.119397
1298.5, 0.120626
1303.5, 0.121931
1308.5, 0.121509
1313.5, 0.121862
1318.5, 0.124017
1323.5, 0.124638
1328.5, 0.126085
1333.5, 0.127199
1338.5, 0.127937
1343.5, 0.129082
1348.5, 0.130360
1353.5, 0.132078
1358.5, 0.132118
1363.5, 0.133716
1368.5, 0.134380
1373.5, 0.134873
1378.5, 0.135725
1383.5, 0.138203
1388.5, 0.137239
1393.5, 0.139938
1398.5, 0.139774
1403.5, 0.140615
1408.5, 0.141510
1413.5, 0.140771
1418.5, 0.142173
1423.5, 0.144795
1428.5, 0.145831
1433.5, 0.145311
1438.5, 0.146100
1443.5, 0.146875
1448.5, 0.150549
1453.5, 0.150746
1458.5, 0.151755
1463.5, 0.151871
1468.5, 0.153514
1473.5, 0.157918
1478.5, 0.155860
1483.5, 0.158946
1488.5, 0.159252
1493.5, 0.159887
1498.5, 0.161655
1503.5, 0.163237
1508.5, 0.163592
1513.5, 0.164820
1518.5, 0.167148
1523.5, 0.170865
1528.5, 0.169277
1534.0, 0.170027
1540.0, 0.170830
1546.0, 0.172902
1552.0, 0.174434
1558.0, 0.175372
1564.0, 0.176465
1570.5, 0.178405
1577.5, 0.179225
1584.5, 0.180913
1591.5, 0.183298
1598.5, 0.182340
1605.5, 0.185478
1612.5, 0.187912
1619.5, 0.188957
1626.5, 0.190927
1633.5, 0.190643
1640.5, 0.193065
1647.5, 0.196689
1654.5, 0.198648
1661.5, 0.198988
1668.5, 0.199371
1676.0, 0.200526
1684.0, 0.203500
1692.0, 0.206828
1700.0, 0.208346
1708.0, 0.210244
1716.0, 0.210481
1724.0, 0.214250
1732.0, 0.213565
1740.0, 0.217411
1748.0, 0.219152
1756.0, 0.220470
1764.0, 0.223745
1772.0, 0.225628
1780.0, 0.225527
1788.0, 0.229188
1796.0, 0.231161
1805.0, 0.232370
1815.0, 0.233515
1825.0, 0.234880
1835.0, 0.238083
1845.0, 0.239503
1855.0, 0.243768
1865.0, 0.243178
1875.0, 0.244725
1885.0, 0.242085
1895.0, 0.235647
1905.0, 0.222473
1915.0, 0.220592
1925.0, 0.226934
1935.0, 0.230715
1945.0, 0.234781
1955.0, 0.241063
1965.0, 0.244779
1975.0, 0.248747
1985.0, 0.254643
1995.0, 0.259503
2005.0, 0.263011
2015.0, 0.269605
2025.0, 0.268720
2035.0, 0.274170
2045.0, 0.277878
2055.0, 0.280342
2065.0, 0.285916
2075.0, 0.287983
2085.0, 0.290576
2095.0, 0.292425
2105.0, 0.293123
2115.0, 0.298042
2125.0, 0.300618
2135.0, 0.304998
2145.0, 0.307586
2155.0, 0.308123
2165.0, 0.309823
2175.0, 0.309207
2185.0, 0.308225
2195.0, 0.309091
2205.0, 0.310353
2215.0, 0.308946
2225.0, 0.313090
2235.0, 0.308762
2245.0, 0.310694
2255.0, 0.309995
2265.0, 0.310054
2275.0, 0.305997
2285.0, 0.300301
2295.0, 0.289747
2305.0, 0.284690
2315.0, 0.289087
2325.0, 0.300864
2335.0, 0.300668
2345.0, 0.301137
2355.0, 0.298388
2365.0, 0.301792
2375.0, 0.298222
2386.0, 0.296363
2400.0, 0.294764
2418.0, 0.294210
2440.0, 0.291630
2466.0, 0.284063
2496.0, 0.275283
2528.0, 0.269493
2560.0, 0.268368
2592.0, 0.269515
2624.0, 0.263275
2656.0, 0.244432
2688.0, 0.198753
2720.0, 0.117499
2752.0, 0.0456900
2784.0, 0.0425330
2816.0, 0.0409300
2848.0, 0.0452340
2880.0, 0.0463960
2912.0, 0.0485550
2944.0, 0.0493970
2976.0, 0.0461590
