Database of Origin, USGS Spectral Database
Sample Description, See USGS database for additional info
Date Added,2016-08-03 21:02:08.040876

Data ID,USGS_ant03          
Sample ID, antigorite_nmnh17958.2782
Mineral Name, antigorite
Material Class,Phyllosilicate

Wavelength
236.1, 0.0438130
242.1, 0.0461580
248.1, 0.0477410
253.6, 0.0462610
258.6, 0.0463940
263.6, 0.0488230
268.6, 0.0527930
273.1, 0.0570690
277.1, 0.0651110
281.1, 0.0740750
285.1, 0.0867270
289.1, 0.0991690
293.1, 0.112703
297.1, 0.126691
301.1, 0.144853
305.1, 0.159042
309.1, 0.172646
313.1, 0.188403
317.1, 0.202027
321.1, 0.212918
325.1, 0.220725
329.1, 0.228502
333.1, 0.235308
337.1, 0.242585
341.1, 0.246532
345.1, 0.252171
349.1, 0.258519
353.1, 0.265817
357.1, 0.275844
360.6, 0.283533
363.6, 0.287832
366.6, 0.290611
369.6, 0.295032
372.6, 0.297652
375.6, 0.300083
378.6, 0.300680
381.1, 0.301339
383.1, 0.301335
385.1, 0.302627
387.1, 0.304749
389.1, 0.307866
391.1, 0.310708
393.1, 0.314380
395.1, 0.317042
397.1, 0.317371
399.1, 0.318832
401.1, 0.319702
403.1, 0.320218
405.1, 0.321610
407.1, 0.322365
409.1, 0.323329
411.1, 0.326759
412.8, 0.330128
415.8, 0.332054
418.8, 0.333687
421.8, 0.338720
424.8, 0.342252
427.8, 0.345146
430.8, 0.347796
433.8, 0.350242
436.8, 0.355069
439.8, 0.357795
442.8, 0.359980
445.8, 0.359752
448.8, 0.362042
451.3, 0.363947
453.3, 0.366395
455.3, 0.368326
457.3, 0.370965
459.3, 0.372186
461.3, 0.375702
463.3, 0.377606
465.3, 0.380460
467.3, 0.382415
469.3, 0.386878
471.3, 0.390488
473.3, 0.394223
475.3, 0.397733
477.3, 0.400994
479.3, 0.404454
481.3, 0.406676
483.3, 0.410301
485.3, 0.411960
487.3, 0.413722
489.3, 0.415790
491.3, 0.417480
493.3, 0.417020
495.3, 0.418317
497.3, 0.419522
499.3, 0.422998
501.3, 0.425095
503.3, 0.427968
505.3, 0.430277
507.3, 0.432476
509.3, 0.433085
511.3, 0.434895
513.3, 0.435604
515.3, 0.435842
517.3, 0.437098
519.3, 0.438073
521.3, 0.437455
523.3, 0.438065
525.3, 0.437925
527.3, 0.437643
529.3, 0.437462
531.3, 0.437321
533.3, 0.437607
535.3, 0.438096
537.3, 0.438180
539.3, 0.438288
541.3, 0.438196
543.3, 0.438099
545.3, 0.438780
547.3, 0.438956
549.3, 0.438123
551.3, 0.438416
553.3, 0.438010
555.3, 0.438148
557.3, 0.437875
559.3, 0.436945
561.3, 0.438191
563.3, 0.437293
565.3, 0.436546
567.3, 0.435387
569.3, 0.435398
571.3, 0.434728
573.3, 0.433216
575.3, 0.434045
577.3, 0.431979
579.3, 0.431016
581.3, 0.428702
583.3, 0.428313
585.3, 0.427181
587.3, 0.425530
589.3, 0.425411
591.3, 0.425115
593.3, 0.422387
595.3, 0.421463
597.3, 0.420374
599.3, 0.419665
601.1, 0.418729
602.7, 0.417176
604.3, 0.417307
605.9, 0.415393
607.5, 0.414608
609.1, 0.413494
610.7, 0.412285
612.3, 0.411961
613.9, 0.410254
615.5, 0.408823
617.1, 0.407692
618.7, 0.407660
620.3, 0.405572
621.9, 0.405265
623.5, 0.403510
625.1, 0.402976
626.7, 0.401366
628.3, 0.400068
629.9, 0.398235
631.7, 0.398131
633.7, 0.396759
635.7, 0.396346
637.7, 0.394599
639.7, 0.393444
641.7, 0.392271
643.7, 0.390382
645.7, 0.390437
647.7, 0.388040
649.7, 0.387724
651.7, 0.386949
653.7, 0.385662
655.7, 0.382720
657.7, 0.381929
659.7, 0.382015
661.7, 0.380650
663.7, 0.379889
665.7, 0.378951
667.7, 0.378452
670.2, 0.376514
673.2, 0.375526
676.2, 0.373967
679.2, 0.372513
682.2, 0.370538
685.2, 0.371137
688.2, 0.369805
691.2, 0.368534
694.2, 0.368714
697.2, 0.367615
700.2, 0.366130
702.0, 0.366910
704.0, 0.366454
706.0, 0.365397
708.0, 0.365544
710.0, 0.366041
712.0, 0.365239
714.0, 0.365915
716.0, 0.364248
718.0, 0.366171
720.0, 0.365154
722.0, 0.364951
724.0, 0.365999
726.0, 0.367687
728.0, 0.367259
730.0, 0.367171
732.0, 0.367234
734.0, 0.367842
736.0, 0.368400
738.0, 0.369132
740.0, 0.369532
742.0, 0.370855
744.0, 0.371776
746.0, 0.372067
748.0, 0.373468
750.5, 0.372784
753.5, 0.375429
756.5, 0.376464
759.5, 0.377450
762.5, 0.381389
765.5, 0.382510
768.5, 0.384736
771.5, 0.387640
774.5, 0.389212
777.5, 0.392243
781.0, 0.394553
785.0, 0.396514
789.0, 0.398907
793.0, 0.401675
797.0, 0.402873
801.5, 0.405458
806.5, 0.406846
811.5, 0.407015
816.5, 0.408208
822.0, 0.408547
828.0, 0.405983
835.0, 0.405232
843.0, 0.403482
851.0, 0.400624
859.0, 0.398149
871.0, 0.391994
883.0, 0.392131
894.0, 0.390014
904.0, 0.389046
914.0, 0.387727
924.0, 0.390682
933.0, 0.392635
941.0, 0.392831
949.0, 0.394275
957.0, 0.397361
964.0, 0.398102
970.0, 0.400990
976.0, 0.403541
982.0, 0.402449
988.0, 0.402887
994.0, 0.404041
1000.0, 0.405548
1006.0, 0.405596
1012.0, 0.403674
1018.0, 0.406269
1023.5, 0.406381
1028.5, 0.405344
1033.5, 0.405480
1038.5, 0.403549
1043.5, 0.404193
1048.5, 0.405191
1053.5, 0.403241
1058.5, 0.403445
1063.5, 0.402269
1068.5, 0.403116
1073.5, 0.401000
1078.5, 0.402432
1083.5, 0.402058
1088.5, 0.400499
1093.5, 0.402842
1098.5, 0.402320
1103.5, 0.403615
1108.5, 0.403319
1113.5, 0.404956
1118.5, 0.405630
1123.5, 0.407309
1128.5, 0.406785
1133.5, 0.407389
1138.5, 0.408376
1143.5, 0.409031
1148.5, 0.411124
1153.5, 0.413823
1158.5, 0.413759
1163.5, 0.418005
1168.5, 0.416078
1173.5, 0.418886
1178.5, 0.420239
1183.5, 0.422371
1188.5, 0.426564
1193.5, 0.427842
1198.5, 0.429438
1203.5, 0.431296
1208.5, 0.432932
1213.5, 0.434584
1218.5, 0.436789
1223.5, 0.440921
1228.5, 0.443266
1233.5, 0.444709
1238.5, 0.447123
1243.5, 0.447817
1248.5, 0.452082
1253.5, 0.454267
1258.5, 0.455703
1263.5, 0.458940
1268.5, 0.460056
1273.5, 0.462138
1278.5, 0.462151
1283.5, 0.463904
1288.5, 0.467544
1293.5, 0.470630
1298.5, 0.473048
1303.5, 0.476295
1308.5, 0.478871
1313.5, 0.480707
1318.5, 0.483434
1323.5, 0.486163
1328.5, 0.488898
1333.5, 0.490517
1338.5, 0.494287
1343.5, 0.495233
1348.5, 0.496250
1353.5, 0.494725
1358.5, 0.492692
1363.5, 0.491951
1368.5, 0.496672
1373.5, 0.496517
1378.5, 0.480907
1383.5, 0.430127
1388.5, 0.427977
1393.5, 0.419139
1398.5, 0.422359
1403.5, 0.442542
1408.5, 0.471904
1413.5, 0.493181
1418.5, 0.503138
1423.5, 0.508332
1428.5, 0.513022
1433.5, 0.517749
1438.5, 0.522936
1443.5, 0.525807
1448.5, 0.530017
1453.5, 0.530160
1458.5, 0.535997
1463.5, 0.539230
1468.5, 0.543294
1473.5, 0.545919
1478.5, 0.547229
1483.5, 0.548285
1488.5, 0.548190
1493.5, 0.553478
1498.5, 0.554693
1503.5, 0.554743
1508.5, 0.557296
1513.5, 0.560025
1518.5, 0.562537
1523.5, 0.565636
1528.5, 0.566124
1534.0, 0.568763
1540.0, 0.570811
1546.0, 0.573352
1552.0, 0.574030
1558.0, 0.577390
1564.0, 0.578282
1570.5, 0.582315
1577.5, 0.582895
1584.5, 0.585541
1591.5, 0.588221
1598.5, 0.588951
1605.5, 0.592746
1612.5, 0.592904
1619.5, 0.594701
1626.5, 0.596735
1633.5, 0.598334
1640.5, 0.600325
1647.5, 0.601113
1654.5, 0.602646
1661.5, 0.602482
1668.5, 0.607111
1676.0, 0.608345
1684.0, 0.608319
1692.0, 0.614548
1700.0, 0.614973
1708.0, 0.613267
1716.0, 0.613478
1724.0, 0.614698
1732.0, 0.615908
1740.0, 0.614293
1748.0, 0.615202
1756.0, 0.615436
1764.0, 0.619061
1772.0, 0.618104
1780.0, 0.622191
1788.0, 0.619782
1796.0, 0.618691
1805.0, 0.617495
1815.0, 0.618452
1825.0, 0.618583
1835.0, 0.618004
1845.0, 0.614949
1855.0, 0.620597
1865.0, 0.616628
1875.0, 0.609702
1885.0, 0.601740
1895.0, 0.579915
1905.0, 0.559338
1915.0, 0.552860
1925.0, 0.552654
1935.0, 0.552118
1945.0, 0.548134
1955.0, 0.543733
1965.0, 0.537798
1975.0, 0.539466
1985.0, 0.540472
1995.0, 0.547988
2005.0, 0.550164
2015.0, 0.558216
2025.0, 0.564068
2035.0, 0.574968
2045.0, 0.580025
2055.0, 0.590505
2065.0, 0.595305
2075.0, 0.590954
2085.0, 0.580698
2095.0, 0.567681
2105.0, 0.565045
2115.0, 0.567104
2125.0, 0.565290
2135.0, 0.568570
2145.0, 0.575297
2155.0, 0.579632
2165.0, 0.588691
2175.0, 0.592037
2185.0, 0.589933
2195.0, 0.588674
2205.0, 0.582712
2215.0, 0.574168
2225.0, 0.557161
2235.0, 0.523367
2245.0, 0.491719
2255.0, 0.480793
2265.0, 0.457101
2275.0, 0.433747
2285.0, 0.416595
2295.0, 0.391214
2305.0, 0.365167
2315.0, 0.335040
2325.0, 0.312136
2335.0, 0.335504
2345.0, 0.383414
2355.0, 0.423632
2365.0, 0.436573
2375.0, 0.415757
2386.0, 0.403335
2400.0, 0.400515
2418.0, 0.384851
2440.0, 0.373671
2466.0, 0.368416
2496.0, 0.350745
2528.0, 0.340334
2560.0, 0.350259
2592.0, 0.360729
2624.0, 0.378825
2656.0, 0.357974
2688.0, 0.178683
2720.0, 0.0224840
2752.0, 0.0330750
2784.0, 0.0339590
2816.0, 0.0616370
2848.0, 0.0622080
2880.0, 0.0682860
2912.0, 0.0824650
2944.0, 0.0976400
2976.0, 0.0978310
