Database of Origin, USGS Spectral Database
Sample Description, See USGS database for additional info
Date Added,2016-08-10 05:27:14.148368

Data ID,USGS_psi02          
Sample ID, psilomelane_hs139.18507
Mineral Name, psilomelane
Material Class,Hydroxide

Wavelength
1607.49, 0.0294790
1607.99, 0.0295990
1608.49, 0.0297180
1608.99, 0.0298980
1609.49, 0.0294190
1609.99, 0.0292400
1610.49, 0.0297180
1610.99, 0.0299570
1611.49, 0.0297780
1611.99, 0.0297180
1612.49, 0.0298980
1612.99, 0.0303160
1613.49, 0.0301970
1614.0, 0.0299570
1614.5, 0.0302560
1615.0, 0.0308540
1615.51, 0.0307350
1616.01, 0.0303160
1616.51, 0.0303160
1617.02, 0.0306150
1617.52, 0.0306750
1618.03, 0.0307350
1618.53, 0.0307940
1619.04, 0.0310340
1619.54, 0.0309140
1620.05, 0.0307940
1620.55, 0.0307350
1621.06, 0.0307350
1621.57, 0.0306750
1622.08, 0.0302560
1622.58, 0.0303760
1623.09, 0.0307940
1623.6, 0.0309140
1624.11, 0.0307940
1624.62, 0.0308540
1625.13, 0.0310930
1625.64, 0.0311530
1626.15, 0.0310930
1626.66, 0.0310930
1627.17, 0.0313330
1627.68, 0.0313920
1628.19, 0.0311530
1628.7, 0.0311530
1629.21, 0.0313920
1629.72, 0.0315120
1630.24, 0.0315120
1630.75, 0.0313920
1631.26, 0.0316910
1631.78, 0.0318710
1632.29, 0.0313330
1632.8, 0.0310930
1633.32, 0.0316320
1633.83, 0.0318710
1634.35, 0.0314520
1634.86, 0.0314520
1635.38, 0.0316910
1635.9, 0.0318110
1636.41, 0.0319310
1636.93, 0.0319900
1637.45, 0.0319310
1637.96, 0.0321100
1638.48, 0.0324090
1639.0, 0.0321700
1639.52, 0.0322300
1640.04, 0.0322890
1640.56, 0.0321100
1641.08, 0.0317510
1641.59, 0.0319900
1642.11, 0.0324690
1642.63, 0.0320500
1643.16, 0.0318710
1643.68, 0.0319900
1644.2, 0.0321100
1644.72, 0.0325290
1645.24, 0.0328280
1645.76, 0.0323490
1646.29, 0.0318110
1646.81, 0.0316320
1647.33, 0.0320500
1647.86, 0.0325880
1648.38, 0.0328870
1648.9, 0.0330670
1649.43, 0.0325290
1649.95, 0.0325880
1650.48, 0.0329470
1651.0, 0.0332460
1651.53, 0.0335450
1652.06, 0.0335450
1652.58, 0.0331270
1653.11, 0.0325880
1653.64, 0.0322300
1654.17, 0.0323490
1654.69, 0.0331270
1655.22, 0.0332460
1655.75, 0.0330070
1656.28, 0.0330070
1656.81, 0.0325880
1657.34, 0.0328280
1657.87, 0.0330070
1658.4, 0.0327680
1658.93, 0.0327080
1659.46, 0.0326480
1659.99, 0.0326480
1660.52, 0.0327680
1661.05, 0.0327680
1661.59, 0.0327080
1662.12, 0.0330070
1662.65, 0.0332460
1663.19, 0.0332460
1663.72, 0.0333060
1664.26, 0.0334850
1664.79, 0.0337240
1665.32, 0.0339040
1665.86, 0.0336050
1666.39, 0.0334850
1666.93, 0.0334850
1667.47, 0.0332460
1668.0, 0.0330670
1668.54, 0.0333060
1669.08, 0.0331860
1669.61, 0.0336050
1670.15, 0.0342630
1670.69, 0.0344420
1671.23, 0.0342630
1671.77, 0.0343820
1672.31, 0.0343220
1672.85, 0.0338440
1673.39, 0.0336650
1673.93, 0.0340230
1674.47, 0.0340230
1675.01, 0.0340830
1675.55, 0.0342030
1676.09, 0.0341430
1676.64, 0.0345020
1677.18, 0.0350400
1677.72, 0.0346810
1678.26, 0.0341430
1678.81, 0.0344420
1679.35, 0.0346210
1679.89, 0.0339640
1680.44, 0.0340230
1680.98, 0.0348010
1681.53, 0.0346810
1682.07, 0.0342630
1682.62, 0.0342030
1683.17, 0.0340230
1683.71, 0.0341430
1684.26, 0.0342630
1684.81, 0.0346810
1685.36, 0.0345620
1685.9, 0.0343820
1686.45, 0.0348010
1687.0, 0.0346210
1687.55, 0.0347410
1688.1, 0.0349800
1688.65, 0.0348010
1689.2, 0.0349200
1689.75, 0.0350400
1690.3, 0.0348610
1690.85, 0.0349200
1691.41, 0.0350400
1691.96, 0.0345620
1692.51, 0.0346810
1693.06, 0.0349200
1693.61, 0.0348610
1694.17, 0.0346210
1694.72, 0.0348010
1695.28, 0.0351000
1695.83, 0.0351600
1696.39, 0.0351600
1696.94, 0.0352190
1697.5, 0.0353990
1698.05, 0.0353990
1698.61, 0.0348010
1699.17, 0.0341430
1699.72, 0.0347410
1700.28, 0.0354590
1700.84, 0.0351000
1701.4, 0.0349200
1701.95, 0.0352190
1702.51, 0.0356380
1703.07, 0.0359370
1703.63, 0.0356380
1704.19, 0.0353990
1704.75, 0.0356380
1705.31, 0.0355180
1705.88, 0.0351600
1706.44, 0.0355180
1707.0, 0.0359970
1707.56, 0.0356980
1708.12, 0.0353390
1708.69, 0.0352790
1709.25, 0.0358170
1709.81, 0.0359370
1710.38, 0.0359370
1710.94, 0.0359370
1711.51, 0.0357570
1712.07, 0.0356380
1712.64, 0.0356980
1713.2, 0.0359370
1713.77, 0.0358770
1714.34, 0.0356980
1714.9, 0.0357570
1715.47, 0.0358770
1716.04, 0.0360560
1716.61, 0.0362360
1717.18, 0.0362360
1717.74, 0.0363550
1718.31, 0.0362960
1718.88, 0.0362360
1719.45, 0.0363550
1720.02, 0.0359970
1720.59, 0.0359970
1721.17, 0.0360560
1721.74, 0.0360560
1722.31, 0.0362960
1722.88, 0.0366540
1723.45, 0.0369530
1724.03, 0.0370730
1724.6, 0.0368340
1725.18, 0.0364150
1725.75, 0.0364150
1726.33, 0.0365350
1726.9, 0.0364150
1727.48, 0.0365950
1728.05, 0.0366540
1728.63, 0.0367740
1729.2, 0.0365350
1729.78, 0.0360560
1730.36, 0.0362960
1730.94, 0.0362960
1731.51, 0.0364150
1732.09, 0.0367740
1732.67, 0.0367140
1733.25, 0.0366540
1733.83, 0.0365350
1734.41, 0.0367140
1734.99, 0.0370130
1735.57, 0.0369530
1736.15, 0.0367140
1736.73, 0.0365950
1737.32, 0.0364750
1737.9, 0.0365950
1738.48, 0.0369530
1739.07, 0.0371930
1739.65, 0.0373120
1740.23, 0.0375510
1740.82, 0.0374320
1741.4, 0.0374320
1741.99, 0.0370730
1742.57, 0.0367740
1743.16, 0.0369530
1743.74, 0.0374320
1744.33, 0.0374920
1744.92, 0.0374920
1745.51, 0.0373720
1746.09, 0.0371330
1746.68, 0.0372520
1747.27, 0.0374320
1747.86, 0.0371930
1748.45, 0.0374920
1749.04, 0.0377910
1749.63, 0.0377910
1750.22, 0.0375510
1750.81, 0.0374920
1751.4, 0.0378500
1751.99, 0.0376710
1752.59, 0.0375510
1753.18, 0.0377910
1753.77, 0.0377310
1754.37, 0.0375510
1754.96, 0.0374920
1755.56, 0.0377910
1756.15, 0.0377910
1756.74, 0.0377310
1757.34, 0.0373720
1757.94, 0.0374320
1758.53, 0.0374920
1759.13, 0.0375510
1759.73, 0.0374920
1760.32, 0.0379700
1760.92, 0.0380300
1761.52, 0.0376710
1762.12, 0.0377310
1762.72, 0.0380890
1763.32, 0.0381490
1763.92, 0.0380890
1764.52, 0.0380300
1765.12, 0.0378500
1765.72, 0.0381490
1766.32, 0.0385080
1766.92, 0.0383880
1767.53, 0.0380890
1768.13, 0.0379700
1768.73, 0.0381490
1769.34, 0.0380890
1769.94, 0.0380300
1770.55, 0.0382090
1771.15, 0.0385080
1771.76, 0.0380890
1772.36, 0.0380300
1772.97, 0.0376710
1773.57, 0.0377310
1774.18, 0.0382690
1774.79, 0.0386870
1775.4, 0.0385680
1776.0, 0.0382690
1776.61, 0.0382090
1777.22, 0.0382690
1777.83, 0.0385080
1778.44, 0.0383290
1779.05, 0.0377910
1779.66, 0.0377910
1780.27, 0.0382690
1780.88, 0.0387470
1781.5, 0.0386870
1782.11, 0.0386280
1782.72, 0.0388670
1783.33, 0.0391660
1783.95, 0.0391060
1784.56, 0.0388070
1785.18, 0.0388070
1785.79, 0.0388070
1786.41, 0.0385680
1787.02, 0.0386870
1787.64, 0.0387470
1788.26, 0.0389270
1788.87, 0.0392260
1789.49, 0.0391660
1790.11, 0.0389860
1790.73, 0.0392260
1791.35, 0.0393450
1791.96, 0.0390460
1792.58, 0.0391060
1793.21, 0.0391660
1793.83, 0.0390460
1794.45, 0.0389270
1795.07, 0.0389270
1795.69, 0.0390460
1796.31, 0.0389270
1796.93, 0.0388070
1797.56, 0.0388070
1798.18, 0.0391060
1798.8, 0.0394650
1799.43, 0.0393450
1800.05, 0.0389270
1800.68, 0.0389860
1801.3, 0.0390460
1801.93, 0.0391660
1802.56, 0.0393450
1803.18, 0.0395840
1803.81, 0.0394650
1804.44, 0.0394050
1805.07, 0.0397040
1805.7, 0.0398830
1806.33, 0.0395250
1806.95, 0.0391660
1807.58, 0.0392850
1808.22, 0.0396440
1808.85, 0.0396440
1809.48, 0.0397040
1810.11, 0.0397040
1810.74, 0.0395250
1811.38, 0.0396440
1812.01, 0.0399430
1812.64, 0.0398240
1813.28, 0.0398240
1813.91, 0.0397640
1814.55, 0.0397640
1815.18, 0.0400030
1815.82, 0.0401820
1816.45, 0.0402420
1817.09, 0.0400630
1817.73, 0.0400630
1818.36, 0.0402420
1819.0, 0.0401230
1819.64, 0.0401230
1820.28, 0.0401820
1820.92, 0.0401230
1821.56, 0.0403020
1822.2, 0.0406010
1822.84, 0.0405410
1823.48, 0.0401820
1824.12, 0.0401230
1824.76, 0.0402420
1825.41, 0.0401230
1826.05, 0.0400030
1826.69, 0.0403020
1827.34, 0.0405410
1827.98, 0.0404220
1828.63, 0.0404810
1829.27, 0.0407200
1829.92, 0.0408400
1830.56, 0.0406010
1831.21, 0.0404810
1831.86, 0.0404220
1832.5, 0.0404220
1833.15, 0.0404810
1833.8, 0.0406010
1834.45, 0.0404810
1835.1, 0.0403620
1835.75, 0.0406010
1836.4, 0.0410190
1837.05, 0.0408400
1837.7, 0.0407200
1838.35, 0.0406010
1839.01, 0.0406010
1839.66, 0.0409000
1840.31, 0.0411390
1840.96, 0.0411390
1841.62, 0.0410190
1842.27, 0.0410190
1842.93, 0.0409000
1843.58, 0.0410190
1844.24, 0.0411390
1844.9, 0.0408400
1845.55, 0.0406610
1846.21, 0.0407200
1846.87, 0.0407800
1847.53, 0.0409000
1848.18, 0.0411990
1848.84, 0.0413180
1849.5, 0.0409600
1850.16, 0.0409000
1850.82, 0.0410190
1851.48, 0.0409000
1852.14, 0.0410190
1852.81, 0.0414380
1853.47, 0.0417970
1854.13, 0.0416170
1854.8, 0.0411390
1855.46, 0.0412590
1856.12, 0.0416170
1856.79, 0.0415580
1857.45, 0.0411390
1858.12, 0.0413180
1858.79, 0.0416170
1859.45, 0.0414380
1860.12, 0.0411990
1860.79, 0.0411990
1861.46, 0.0414380
1862.12, 0.0416770
1862.79, 0.0416770
1863.46, 0.0416770
1864.13, 0.0416170
1864.8, 0.0414980
1865.48, 0.0414980
1866.15, 0.0415580
1866.82, 0.0414980
1867.49, 0.0414380
1868.16, 0.0417370
1868.84, 0.0418570
1869.51, 0.0417370
1870.19, 0.0416770
1870.86, 0.0417370
1871.54, 0.0417970
1872.21, 0.0414980
1872.89, 0.0415580
1873.56, 0.0419160
1874.24, 0.0420360
1874.92, 0.0422150
1875.6, 0.0422150
1876.28, 0.0419760
1876.96, 0.0419760
1877.64, 0.0422750
1878.32, 0.0423350
1879.0, 0.0423350
1879.68, 0.0422750
1880.36, 0.0420360
1881.04, 0.0416770
1881.73, 0.0414380
1882.41, 0.0417370
1883.09, 0.0419160
1883.78, 0.0420960
1884.46, 0.0422750
1885.15, 0.0421560
1885.83, 0.0421560
1886.52, 0.0421560
1887.21, 0.0422750
1887.89, 0.0423350
1888.58, 0.0423950
1889.27, 0.0425740
1889.96, 0.0429930
1890.65, 0.0428730
1891.34, 0.0426940
1892.03, 0.0425740
1892.72, 0.0424550
1893.41, 0.0423350
1894.1, 0.0425140
1894.79, 0.0428130
1895.49, 0.0424550
1896.18, 0.0423950
1896.87, 0.0425740
1897.57, 0.0425740
1898.26, 0.0426940
1898.96, 0.0428130
1899.65, 0.0426340
1900.35, 0.0426340
1901.05, 0.0428130
1901.74, 0.0429930
1902.44, 0.0429330
1903.14, 0.0429930
1903.84, 0.0427540
1904.54, 0.0425740
1905.24, 0.0428130
1905.94, 0.0432320
1906.64, 0.0431720
1907.34, 0.0432320
1908.04, 0.0432920
1908.75, 0.0431720
1909.45, 0.0429930
1910.15, 0.0428730
1910.86, 0.0429330
1911.56, 0.0429330
1912.27, 0.0428730
1912.97, 0.0429330
1913.68, 0.0431720
1914.39, 0.0432320
1915.09, 0.0431720
1915.8, 0.0430520
1916.51, 0.0430520
1917.22, 0.0432920
1917.93, 0.0433510
1918.64, 0.0433510
1919.35, 0.0435310
1920.06, 0.0436500
1920.77, 0.0436500
1921.48, 0.0432320
1922.19, 0.0429330
1922.91, 0.0433510
1923.62, 0.0435310
1924.33, 0.0435910
1925.05, 0.0438900
1925.76, 0.0438300
1926.48, 0.0435310
1927.19, 0.0433510
1927.91, 0.0432920
1928.63, 0.0433510
1929.35, 0.0434110
1930.07, 0.0433510
1930.78, 0.0434110
1931.5, 0.0435310
1932.22, 0.0435310
1932.94, 0.0434710
1933.66, 0.0434710
1934.39, 0.0436500
1935.11, 0.0434710
1935.83, 0.0435910
1936.55, 0.0437700
1937.28, 0.0438900
1938.0, 0.0436500
1938.73, 0.0437700
1939.45, 0.0440090
1940.18, 0.0439490
1940.9, 0.0439490
1941.63, 0.0439490
1942.36, 0.0439490
1943.09, 0.0441290
1943.81, 0.0441290
1944.54, 0.0439490
1945.27, 0.0438900
1946.0, 0.0438300
1946.73, 0.0438300
1947.47, 0.0438300
1948.2, 0.0440090
1948.93, 0.0440090
1949.66, 0.0440090
1950.4, 0.0440690
1951.13, 0.0441290
1951.86, 0.0440090
1952.6, 0.0437700
1953.34, 0.0437700
1954.07, 0.0441890
1954.81, 0.0442480
1955.55, 0.0441890
1956.29, 0.0444280
1957.02, 0.0441890
1957.76, 0.0440690
1958.5, 0.0443680
1959.24, 0.0446670
1959.98, 0.0447270
1960.72, 0.0443080
1961.47, 0.0440090
1962.21, 0.0438300
1962.95, 0.0438900
1963.7, 0.0442480
1964.44, 0.0446070
1965.18, 0.0447870
1965.93, 0.0445470
1966.67, 0.0444880
1967.42, 0.0447270
1968.17, 0.0447270
1968.92, 0.0443680
1969.66, 0.0442480
1970.41, 0.0446070
1971.16, 0.0445470
1971.91, 0.0444880
1972.66, 0.0446070
1973.41, 0.0449060
1974.16, 0.0450260
1974.92, 0.0446670
1975.67, 0.0447870
1976.42, 0.0450260
1977.18, 0.0451450
1977.93, 0.0451450
1978.69, 0.0450860
1979.44, 0.0449060
1980.2, 0.0446670
1980.95, 0.0448460
1981.71, 0.0450860
1982.47, 0.0450860
1983.23, 0.0451450
1983.99, 0.0452050
1984.74, 0.0449060
1985.51, 0.0450860
1986.27, 0.0453250
1987.03, 0.0454440
1987.79, 0.0454440
1988.55, 0.0453250
1989.32, 0.0453850
1990.08, 0.0455040
1990.84, 0.0455040
1991.61, 0.0453850
1992.37, 0.0453250
1993.14, 0.0454440
1993.9, 0.0458030
1994.67, 0.0458030
1995.44, 0.0458030
1996.21, 0.0458630
1996.98, 0.0457430
1997.75, 0.0455640
1998.52, 0.0453250
1999.29, 0.0453250
2000.06, 0.0454440
2000.83, 0.0455040
2001.6, 0.0456240
2002.38, 0.0458030
2003.15, 0.0459230
2003.93, 0.0458030
2004.7, 0.0456830
2005.48, 0.0455640
2006.25, 0.0455640
2007.03, 0.0457430
2007.81, 0.0458630
2008.58, 0.0458630
2009.36, 0.0458630
2010.14, 0.0460420
2010.92, 0.0461620
2011.7, 0.0461620
2012.48, 0.0459820
2013.26, 0.0456830
2014.05, 0.0456240
2014.83, 0.0458030
2015.61, 0.0459230
2016.4, 0.0459820
2017.18, 0.0459820
2017.97, 0.0461620
2018.75, 0.0461620
2019.54, 0.0460420
2020.32, 0.0460420
2021.11, 0.0462810
2021.9, 0.0462810
2022.69, 0.0459820
2023.48, 0.0460420
2024.27, 0.0464010
2025.06, 0.0468200
2025.85, 0.0465800
2026.64, 0.0462810
2027.44, 0.0461620
2028.23, 0.0460420
2029.02, 0.0459820
2029.82, 0.0462220
2030.61, 0.0464010
2031.41, 0.0464010
2032.2, 0.0465210
2033.0, 0.0466400
2033.8, 0.0464010
2034.6, 0.0464610
2035.4, 0.0465210
2036.2, 0.0461620
2037.0, 0.0462220
2037.8, 0.0462810
2038.6, 0.0464610
2039.4, 0.0468200
2040.2, 0.0468200
2041.01, 0.0467600
2041.81, 0.0468200
2042.61, 0.0468200
2043.42, 0.0469390
2044.22, 0.0469990
2045.03, 0.0467600
2045.84, 0.0466400
2046.65, 0.0467600
2047.46, 0.0468790
2048.26, 0.0469390
2049.07, 0.0469990
2049.88, 0.0471190
2050.69, 0.0471190
2051.51, 0.0470590
2052.32, 0.0470590
2053.13, 0.0469390
2053.94, 0.0469390
2054.76, 0.0471780
2055.57, 0.0474180
2056.39, 0.0472380
2057.2, 0.0469390
2058.02, 0.0468790
2058.84, 0.0471780
2059.66, 0.0472980
2060.48, 0.0472380
2061.29, 0.0473580
2062.11, 0.0472380
2062.94, 0.0471780
2063.76, 0.0472380
2064.58, 0.0469990
2065.4, 0.0469990
2066.22, 0.0470590
2067.05, 0.0475370
2067.87, 0.0473580
2068.7, 0.0471780
2069.52, 0.0472380
2070.35, 0.0474180
2071.18, 0.0475970
2072.0, 0.0475970
2072.83, 0.0475370
2073.66, 0.0475970
2074.49, 0.0474770
2075.32, 0.0474770
2076.15, 0.0475970
2076.98, 0.0475970
2077.82, 0.0475370
2078.65, 0.0478360
2079.48, 0.0481350
2080.32, 0.0480150
2081.15, 0.0478960
2081.99, 0.0476570
2082.83, 0.0475970
2083.66, 0.0478360
2084.5, 0.0481350
2085.34, 0.0481350
2086.18, 0.0477760
2087.02, 0.0478360
2087.86, 0.0480150
2088.7, 0.0479560
2089.54, 0.0478960
2090.39, 0.0477170
2091.23, 0.0478360
2092.07, 0.0482550
2092.92, 0.0483140
2093.76, 0.0482550
2094.61, 0.0483140
2095.45, 0.0481950
2096.3, 0.0480750
2097.15, 0.0482550
2098.0, 0.0483140
2098.85, 0.0482550
2099.7, 0.0483740
2100.55, 0.0483740
2101.4, 0.0483740
2102.25, 0.0482550
2103.1, 0.0482550
2103.96, 0.0484340
2104.81, 0.0486130
2105.67, 0.0484340
2106.52, 0.0481950
2107.38, 0.0483140
2108.24, 0.0484340
2109.09, 0.0482550
2109.95, 0.0483740
2110.81, 0.0485540
2111.67, 0.0486130
2112.53, 0.0486130
2113.39, 0.0485540
2114.25, 0.0486130
2115.12, 0.0484940
2115.98, 0.0485540
2116.84, 0.0489720
2117.71, 0.0489720
2118.58, 0.0489120
2119.44, 0.0489120
2120.31, 0.0487930
2121.18, 0.0488530
2122.04, 0.0490320
2122.91, 0.0491520
2123.78, 0.0487930
2124.65, 0.0486730
2125.52, 0.0490320
2126.4, 0.0492110
2127.27, 0.0491520
2128.14, 0.0490320
2129.02, 0.0490920
2129.89, 0.0490920
2130.77, 0.0490920
2131.64, 0.0489720
2132.52, 0.0487930
2133.4, 0.0489720
2134.27, 0.0492110
2135.15, 0.0492110
2136.03, 0.0492110
2136.91, 0.0492110
2137.79, 0.0491520
2138.68, 0.0492110
2139.56, 0.0494510
2140.44, 0.0493310
2141.33, 0.0491520
2142.21, 0.0491520
2143.1, 0.0491520
2143.99, 0.0491520
2144.87, 0.0493310
2145.76, 0.0496900
2146.65, 0.0496300
2147.54, 0.0494510
2148.43, 0.0494510
2149.32, 0.0495700
2150.21, 0.0495100
2151.1, 0.0495100
2151.99, 0.0496300
2152.89, 0.0497500
2153.78, 0.0496900
2154.68, 0.0494510
2155.57, 0.0494510
2156.47, 0.0494510
2157.37, 0.0495700
2158.27, 0.0496900
2159.16, 0.0496900
2160.06, 0.0496900
2160.96, 0.0496900
2161.86, 0.0496300
2162.77, 0.0495700
2163.67, 0.0495700
2164.57, 0.0495700
2165.48, 0.0497500
2166.38, 0.0496900
2167.29, 0.0498090
2168.2, 0.0498690
2169.1, 0.0496900
2170.01, 0.0497500
2170.92, 0.0500490
2171.83, 0.0501680
2172.74, 0.0501080
2173.65, 0.0499890
2174.56, 0.0500490
2175.47, 0.0502280
2176.39, 0.0502280
2177.3, 0.0500490
2178.22, 0.0500490
2179.13, 0.0500490
2180.05, 0.0499290
2180.96, 0.0500490
2181.88, 0.0501680
2182.8, 0.0502280
2183.72, 0.0501080
2184.64, 0.0501080
2185.56, 0.0502880
2186.48, 0.0505270
2187.41, 0.0507060
2188.33, 0.0507060
2189.25, 0.0505270
2190.18, 0.0505870
2191.1, 0.0506460
2192.03, 0.0505870
2192.96, 0.0505270
2193.89, 0.0505870
2194.82, 0.0505870
2195.74, 0.0508860
2196.68, 0.0508260
2197.61, 0.0504070
2198.54, 0.0507060
2199.47, 0.0509450
2200.4, 0.0508260
2201.34, 0.0507660
2202.28, 0.0508860
2203.21, 0.0509450
2204.15, 0.0508260
2205.08, 0.0507060
2206.02, 0.0507060
2206.96, 0.0507660
2207.9, 0.0506460
2208.84, 0.0507060
2209.78, 0.0510050
2210.73, 0.0512440
2211.67, 0.0510650
2212.61, 0.0510050
2213.56, 0.0512440
2214.5, 0.0512440
2215.45, 0.0511850
2216.4, 0.0513040
2217.35, 0.0514240
2218.3, 0.0515430
2219.24, 0.0515430
2220.2, 0.0514240
2221.15, 0.0513640
2222.1, 0.0513640
2223.05, 0.0515430
2224.0, 0.0513640
2224.96, 0.0511850
2225.91, 0.0514240
2226.87, 0.0514840
2227.83, 0.0513640
2228.79, 0.0511250
2229.74, 0.0512440
2230.7, 0.0516630
2231.66, 0.0519020
2232.63, 0.0518420
2233.59, 0.0516030
2234.55, 0.0514240
2235.51, 0.0515430
2236.48, 0.0515430
2237.44, 0.0515430
2238.41, 0.0517830
2239.38, 0.0517830
2240.34, 0.0517830
2241.31, 0.0518420
2242.28, 0.0519620
2243.25, 0.0520820
2244.22, 0.0519620
2245.19, 0.0519020
2246.17, 0.0519620
2247.14, 0.0520220
2248.12, 0.0519020
2249.09, 0.0517230
2250.07, 0.0519020
2251.04, 0.0520820
2252.02, 0.0520820
2253.0, 0.0520220
2253.98, 0.0519620
2254.96, 0.0519020
2255.94, 0.0518420
2256.92, 0.0519620
2257.91, 0.0520220
2258.89, 0.0519620
2259.88, 0.0520820
2260.86, 0.0522010
2261.85, 0.0522010
2262.83, 0.0522010
2263.82, 0.0522010
2264.81, 0.0523210
2265.8, 0.0522010
2266.79, 0.0521410
2267.78, 0.0524400
2268.78, 0.0525000
2269.77, 0.0522010
2270.76, 0.0521410
2271.76, 0.0522610
2272.75, 0.0523210
2273.75, 0.0523810
2274.75, 0.0523210
2275.75, 0.0524400
2276.75, 0.0525600
2277.75, 0.0525000
2278.75, 0.0525600
2279.75, 0.0526200
2280.75, 0.0525600
2281.76, 0.0525000
2282.76, 0.0524400
2283.77, 0.0525000
2284.77, 0.0525000
2285.78, 0.0525600
2286.79, 0.0527390
2287.8, 0.0526800
2288.81, 0.0525600
2289.82, 0.0526200
2290.83, 0.0526200
2291.84, 0.0526200
2292.86, 0.0526200
2293.87, 0.0527390
2294.89, 0.0530980
2295.91, 0.0530980
2296.92, 0.0529220
2297.94, 0.0529810
2298.96, 0.0530980
2299.98, 0.0535670
2301.0, 0.0536840
2302.02, 0.0535670
2303.04, 0.0533330
2304.07, 0.0532740
2305.09, 0.0533910
2306.12, 0.0532740
2307.15, 0.0530390
2308.17, 0.0532740
2309.2, 0.0534500
2310.23, 0.0532740
2311.26, 0.0533330
2312.29, 0.0535080
2313.32, 0.0535080
2314.35, 0.0534500
2315.39, 0.0533330
2316.42, 0.0533330
2317.46, 0.0536840
2318.5, 0.0538010
2319.53, 0.0537430
