Database of Origin, USGS Spectral Database
Sample Description, See USGS database for additional info
Date Added,2016-08-10 05:26:58.210283

Data ID,USGS_pro08          
Sample ID, prochlorite_smr14.18451
Mineral Name, prochlorite
Material Class,Phyllosilicate

Wavelength
1369.66, 0.213982
1370.02, 0.214110
1370.38, 0.215010
1370.74, 0.214689
1371.11, 0.214624
1371.47, 0.214881
1371.83, 0.215267
1372.19, 0.215138
1372.56, 0.215395
1372.92, 0.215781
1373.29, 0.215331
1373.65, 0.216038
1374.01, 0.216616
1374.38, 0.216295
1374.74, 0.216552
1375.11, 0.217195
1375.47, 0.216616
1375.84, 0.215974
1376.2, 0.216102
1376.57, 0.216552
1376.93, 0.216231
1377.3, 0.216488
1377.67, 0.217259
1378.03, 0.217323
1378.4, 0.217195
1378.76, 0.217130
1379.13, 0.217195
1379.5, 0.217773
1379.87, 0.217387
1380.23, 0.217130
1380.6, 0.217580
1380.97, 0.218159
1381.34, 0.218030
1381.7, 0.217773
1382.07, 0.217516
1382.44, 0.217130
1382.81, 0.217452
1383.18, 0.217645
1383.55, 0.217773
1383.92, 0.218223
1384.29, 0.218544
1384.66, 0.218416
1385.03, 0.218673
1385.4, 0.218351
1385.77, 0.217773
1386.14, 0.217966
1386.51, 0.218094
1386.88, 0.218223
1387.25, 0.218094
1387.62, 0.217709
1387.99, 0.217645
1388.36, 0.218159
1388.74, 0.218287
1389.11, 0.218223
1389.48, 0.218030
1389.85, 0.217773
1390.23, 0.217130
1390.6, 0.216681
1390.97, 0.217259
1391.35, 0.217130
1391.72, 0.216488
1392.09, 0.215974
1392.47, 0.216424
1392.84, 0.216873
1393.21, 0.217066
1393.59, 0.217002
1393.96, 0.216809
1394.34, 0.216681
1394.71, 0.216616
1395.09, 0.216873
1395.46, 0.216809
1395.84, 0.216552
1396.22, 0.216552
1396.59, 0.216938
1396.97, 0.217002
1397.35, 0.217066
1397.72, 0.217323
1398.1, 0.217580
1398.48, 0.217773
1398.85, 0.217516
1399.23, 0.217130
1399.61, 0.217323
1399.99, 0.217387
1400.37, 0.217516
1400.74, 0.217709
1401.12, 0.217902
1401.5, 0.218223
1401.88, 0.218608
1402.26, 0.218351
1402.64, 0.218351
1403.02, 0.218608
1403.4, 0.218608
1403.78, 0.218480
1404.16, 0.218351
1404.54, 0.218287
1404.92, 0.218351
1405.3, 0.218673
1405.68, 0.219122
1406.06, 0.219251
1406.44, 0.218994
1406.83, 0.218801
1407.21, 0.218737
1407.59, 0.219251
1407.97, 0.219380
1408.35, 0.219315
1408.74, 0.219315
1409.12, 0.219251
1409.5, 0.219251
1409.89, 0.219315
1410.27, 0.219444
1410.65, 0.219701
1411.04, 0.220151
1411.42, 0.220151
1411.81, 0.220343
1412.19, 0.220472
1412.58, 0.220343
1412.96, 0.220472
1413.35, 0.220729
1413.73, 0.220729
1414.12, 0.220472
1414.5, 0.220279
1414.89, 0.220408
1415.28, 0.220536
1415.66, 0.220922
1416.05, 0.221436
1416.44, 0.221436
1416.82, 0.221243
1417.21, 0.221436
1417.6, 0.221757
1417.98, 0.222014
1418.37, 0.221629
1418.76, 0.221757
1419.15, 0.221950
1419.54, 0.221564
1419.93, 0.221757
1420.32, 0.222335
1420.71, 0.222785
1421.09, 0.223042
1421.48, 0.223107
1421.88, 0.222657
1422.27, 0.222592
1422.66, 0.222785
1423.05, 0.222785
1423.44, 0.222850
1423.83, 0.222978
1424.22, 0.223042
1424.61, 0.223107
1425.0, 0.223042
1425.39, 0.223171
1425.78, 0.223364
1426.18, 0.223364
1426.57, 0.223299
1426.96, 0.223556
1427.36, 0.224070
1427.75, 0.223878
1428.14, 0.223685
1428.54, 0.224006
1428.93, 0.224584
1429.32, 0.224070
1429.72, 0.223492
1430.11, 0.223556
1430.51, 0.224006
1430.9, 0.224006
1431.3, 0.223813
1431.69, 0.223813
1432.09, 0.224070
1432.48, 0.224199
1432.88, 0.224135
1433.28, 0.224199
1433.67, 0.224199
1434.07, 0.224392
1434.46, 0.224649
1434.86, 0.224456
1435.26, 0.224520
1435.66, 0.224713
1436.05, 0.225034
1436.45, 0.225099
1436.85, 0.224906
1437.25, 0.224520
1437.65, 0.224649
1438.05, 0.224327
1438.44, 0.224263
1438.84, 0.224456
1439.24, 0.224777
1439.64, 0.225034
1440.04, 0.225034
1440.44, 0.224713
1440.84, 0.224777
1441.24, 0.224777
1441.65, 0.224906
1442.05, 0.225099
1442.45, 0.225034
1442.85, 0.225163
1443.25, 0.225291
1443.65, 0.225420
1444.05, 0.225484
1444.46, 0.225677
1444.86, 0.225548
1445.26, 0.225291
1445.67, 0.225227
1446.07, 0.225548
1446.47, 0.225420
1446.88, 0.225420
1447.28, 0.225805
1447.68, 0.225998
1448.09, 0.226127
1448.49, 0.226191
1448.9, 0.226062
1449.3, 0.225934
1449.71, 0.226384
1450.11, 0.226512
1450.52, 0.226705
1450.93, 0.226512
1451.33, 0.226255
1451.74, 0.226191
1452.14, 0.226127
1452.55, 0.226191
1452.96, 0.226448
1453.36, 0.226705
1453.77, 0.226641
1454.18, 0.226577
1454.59, 0.226834
1455.0, 0.226898
1455.41, 0.226834
1455.81, 0.226834
1456.22, 0.226962
1456.63, 0.227026
1457.04, 0.227219
1457.45, 0.227283
1457.86, 0.227219
1458.27, 0.227219
1458.68, 0.227219
1459.09, 0.227412
1459.5, 0.227348
1459.91, 0.227669
1460.32, 0.227540
1460.74, 0.227412
1461.15, 0.227540
1461.56, 0.227669
1461.97, 0.227862
1462.39, 0.227990
1462.8, 0.228119
1463.21, 0.227990
1463.62, 0.227990
1464.04, 0.227862
1464.45, 0.228054
1464.86, 0.228312
1465.28, 0.228312
1465.69, 0.228119
1466.11, 0.228119
1466.52, 0.228376
1466.94, 0.228504
1467.35, 0.228312
1467.77, 0.228697
1468.18, 0.228890
1468.6, 0.229018
1469.02, 0.229275
1469.43, 0.229083
1469.85, 0.228761
1470.27, 0.228761
1470.68, 0.228761
1471.1, 0.228761
1471.52, 0.228890
1471.94, 0.229147
1472.35, 0.228890
1472.77, 0.228826
1473.19, 0.229532
1473.61, 0.229854
1474.03, 0.229661
1474.45, 0.229661
1474.87, 0.229789
1475.29, 0.229789
1475.71, 0.229789
1476.13, 0.229982
1476.55, 0.229918
1476.97, 0.229661
1477.39, 0.229789
1477.81, 0.230175
1478.23, 0.230496
1478.65, 0.230303
1479.07, 0.229918
1479.5, 0.229854
1479.92, 0.230175
1480.34, 0.230303
1480.76, 0.230368
1481.19, 0.230753
1481.61, 0.231139
1482.03, 0.231075
1482.46, 0.230882
1482.88, 0.230818
1483.31, 0.231139
1483.73, 0.231396
1484.16, 0.231139
1484.58, 0.230946
1485.01, 0.231010
1485.43, 0.231396
1485.86, 0.231396
1486.28, 0.231267
1486.71, 0.231075
1487.14, 0.231396
1487.56, 0.231717
1487.99, 0.231781
1488.42, 0.231846
1488.84, 0.232103
1489.27, 0.232424
1489.7, 0.232745
1490.13, 0.232681
1490.56, 0.232488
1490.98, 0.232296
1491.41, 0.232488
1491.84, 0.232488
1492.27, 0.232617
1492.7, 0.232617
1493.13, 0.232553
1493.56, 0.232681
1493.99, 0.232874
1494.42, 0.232938
1494.85, 0.233259
1495.29, 0.233388
1495.72, 0.233324
1496.15, 0.233324
1496.58, 0.233195
1497.01, 0.232874
1497.44, 0.233195
1497.88, 0.233709
1498.31, 0.233773
1498.74, 0.233773
1499.18, 0.233645
1499.61, 0.233581
1500.04, 0.233902
1500.48, 0.233773
1500.91, 0.233709
1501.35, 0.234031
1501.78, 0.234223
1502.22, 0.234223
1502.65, 0.234416
1503.09, 0.234352
1503.53, 0.234416
1503.96, 0.234737
1504.4, 0.234737
1504.83, 0.234545
1505.27, 0.234545
1505.71, 0.234609
1506.15, 0.234609
1506.58, 0.234994
1507.02, 0.235508
1507.46, 0.235444
1507.9, 0.235251
1508.34, 0.235187
1508.78, 0.235187
1509.21, 0.235187
1509.66, 0.235637
1510.09, 0.236023
1510.53, 0.235958
1510.97, 0.235508
1511.42, 0.235573
1511.86, 0.235766
1512.3, 0.236087
1512.74, 0.236023
1513.18, 0.236023
1513.62, 0.236215
1514.06, 0.235894
1514.51, 0.235958
1514.95, 0.236151
1515.39, 0.236344
1515.83, 0.236537
1516.28, 0.236537
1516.72, 0.236537
1517.16, 0.236408
1517.61, 0.236472
1518.05, 0.236601
1518.5, 0.236858
1518.94, 0.237243
1519.39, 0.237115
1519.83, 0.236922
1520.28, 0.236858
1520.73, 0.236794
1521.17, 0.237243
1521.62, 0.237308
1522.07, 0.237308
1522.51, 0.237501
1522.96, 0.237565
1523.41, 0.237629
1523.85, 0.237629
1524.3, 0.237758
1524.75, 0.237629
1525.2, 0.237501
1525.65, 0.237501
1526.1, 0.237822
1526.55, 0.238143
1527.0, 0.238207
1527.45, 0.238079
1527.9, 0.238079
1528.35, 0.238015
1528.8, 0.238015
1529.25, 0.238015
1529.7, 0.238143
1530.15, 0.238143
1530.6, 0.238207
1531.05, 0.238657
1531.51, 0.238850
1531.96, 0.238786
1532.41, 0.238721
1532.87, 0.239107
1533.32, 0.239107
1533.77, 0.239043
1534.23, 0.239236
1534.68, 0.239236
1535.14, 0.239300
1535.59, 0.239428
1536.05, 0.239685
1536.5, 0.239428
1536.96, 0.239557
1537.41, 0.239685
1537.87, 0.239814
1538.32, 0.239942
1538.78, 0.239814
1539.24, 0.239814
1539.7, 0.240199
1540.15, 0.240392
1540.61, 0.240521
1541.07, 0.240456
1541.53, 0.240328
1541.98, 0.240392
1542.44, 0.240778
1542.9, 0.241035
1543.36, 0.241163
1543.82, 0.240970
1544.28, 0.241035
1544.74, 0.241356
1545.2, 0.241163
1545.66, 0.241099
1546.12, 0.241485
1546.59, 0.241999
1547.05, 0.241999
1547.51, 0.241742
1547.97, 0.241742
1548.43, 0.241999
1548.9, 0.242256
1549.36, 0.242320
1549.82, 0.242256
1550.29, 0.242320
1550.75, 0.242384
1551.21, 0.242962
1551.68, 0.243348
1552.14, 0.242898
1552.61, 0.242705
1553.07, 0.243155
1553.54, 0.243220
1554.0, 0.243284
1554.47, 0.243605
1554.93, 0.243541
1555.4, 0.243541
1555.87, 0.243669
1556.34, 0.243734
1556.8, 0.243862
1557.27, 0.243862
1557.74, 0.243862
1558.21, 0.243798
1558.68, 0.244055
1559.14, 0.244440
1559.61, 0.244633
1560.08, 0.244697
1560.55, 0.244633
1561.02, 0.244569
1561.49, 0.244633
1561.96, 0.244826
1562.43, 0.245019
1562.9, 0.245147
1563.38, 0.245276
1563.85, 0.245340
1564.32, 0.245276
1564.79, 0.245404
1565.26, 0.245597
1565.74, 0.245726
1566.21, 0.245661
1566.68, 0.245918
1567.16, 0.246111
1567.63, 0.246111
1568.1, 0.246047
1568.58, 0.245854
1569.05, 0.246047
1569.53, 0.246304
1570.0, 0.246175
1570.48, 0.246240
1570.96, 0.246304
1571.43, 0.246368
1571.91, 0.246561
1572.39, 0.246818
1572.86, 0.246754
1573.34, 0.247075
1573.82, 0.247525
1574.3, 0.247718
1574.77, 0.247910
1575.25, 0.247846
1575.73, 0.247910
1576.21, 0.247653
1576.69, 0.247653
1577.17, 0.247910
1577.65, 0.247910
1578.13, 0.247910
1578.61, 0.247975
1579.09, 0.247975
1579.57, 0.247975
1580.05, 0.248360
1580.54, 0.248553
1581.02, 0.248617
1581.5, 0.248617
1581.98, 0.248810
1582.47, 0.248874
1582.95, 0.248617
1583.43, 0.248682
1583.92, 0.249003
1584.4, 0.249196
1584.88, 0.249324
1585.37, 0.249388
1585.85, 0.249388
1586.34, 0.249388
1586.82, 0.249645
1587.31, 0.249838
1587.8, 0.249967
1588.28, 0.249902
1588.77, 0.249774
1589.26, 0.249774
1589.74, 0.250095
1590.23, 0.250417
1590.72, 0.250417
1591.21, 0.250095
1591.7, 0.250095
1592.19, 0.250288
1592.67, 0.250352
1593.16, 0.250481
1593.65, 0.250609
1594.14, 0.250866
1594.63, 0.250995
1595.12, 0.250866
1595.61, 0.251059
1596.11, 0.251316
1596.6, 0.251445
1597.09, 0.251380
1597.58, 0.251316
1598.08, 0.251380
1598.57, 0.251573
1599.06, 0.251895
1599.55, 0.251766
1600.05, 0.251895
1600.54, 0.251895
1601.04, 0.251895
1601.53, 0.252023
1602.03, 0.252216
1602.52, 0.252344
1603.02, 0.252730
1603.51, 0.252987
1604.01, 0.252987
1604.5, 0.252987
1605.0, 0.252987
1605.5, 0.252923
1606.0, 0.253244
1606.49, 0.253372
1606.99, 0.253501
1607.49, 0.253565
1607.99, 0.253565
1608.49, 0.253629
1608.99, 0.253758
1609.49, 0.253951
1609.99, 0.254015
1610.49, 0.254015
1610.99, 0.254079
1611.49, 0.254336
1611.99, 0.254529
1612.49, 0.254529
1612.99, 0.254593
1613.49, 0.254850
1614.0, 0.254979
1614.5, 0.255107
1615.0, 0.255236
1615.51, 0.255750
1616.01, 0.255814
1616.51, 0.255814
1617.02, 0.255686
1617.52, 0.255557
1618.03, 0.255686
1618.53, 0.255879
1619.04, 0.255943
1619.54, 0.255943
1620.05, 0.256007
1620.55, 0.256328
1621.06, 0.256778
1621.57, 0.256842
1622.08, 0.256457
1622.58, 0.256457
1623.09, 0.256778
1623.6, 0.257164
1624.11, 0.257099
1624.62, 0.257035
1625.13, 0.257164
1625.64, 0.257356
1626.15, 0.257421
1626.66, 0.257421
1627.17, 0.257549
1627.68, 0.257613
1628.19, 0.257871
1628.7, 0.257935
1629.21, 0.257935
1629.72, 0.257999
1630.24, 0.258256
1630.75, 0.258385
1631.26, 0.258642
1631.78, 0.258577
1632.29, 0.258577
1632.8, 0.258899
1633.32, 0.258899
1633.83, 0.258770
1634.35, 0.258706
1634.86, 0.258577
1635.38, 0.258963
1635.9, 0.259156
1636.41, 0.259091
1636.93, 0.259091
1637.45, 0.259156
1637.96, 0.259284
1638.48, 0.259477
1639.0, 0.259670
1639.52, 0.259927
1640.04, 0.259991
1640.56, 0.259927
1641.08, 0.260120
1641.59, 0.260505
1642.11, 0.260569
1642.63, 0.260569
1643.16, 0.260569
1643.68, 0.260441
1644.2, 0.260634
1644.72, 0.260891
1645.24, 0.260826
1645.76, 0.260698
1646.29, 0.260698
1646.81, 0.260698
1647.33, 0.261019
1647.86, 0.261341
1648.38, 0.261341
1648.9, 0.261469
1649.43, 0.261726
1649.95, 0.261533
1650.48, 0.261405
1651.0, 0.261598
1651.53, 0.261790
1652.06, 0.261855
1652.58, 0.261919
1653.11, 0.262112
1653.64, 0.262176
1654.17, 0.262304
1654.69, 0.262433
1655.22, 0.262240
1655.75, 0.262112
1656.28, 0.262304
1656.81, 0.262561
1657.34, 0.262818
1657.87, 0.262690
1658.4, 0.262433
1658.93, 0.262497
1659.46, 0.262626
1659.99, 0.263204
1660.52, 0.263590
1661.05, 0.263333
1661.59, 0.263140
1662.12, 0.263461
1662.65, 0.263525
1663.19, 0.263333
1663.72, 0.263461
1664.26, 0.263590
1664.79, 0.263718
1665.32, 0.264104
1665.86, 0.264361
1666.39, 0.264168
1666.93, 0.264232
1667.47, 0.264168
1668.0, 0.264296
1668.54, 0.264553
1669.08, 0.264746
1669.61, 0.265132
1670.15, 0.265132
1670.69, 0.265003
1671.23, 0.265068
1671.77, 0.265389
1672.31, 0.265646
1672.85, 0.265774
1673.39, 0.265582
1673.93, 0.265517
1674.47, 0.265710
1675.01, 0.265839
1675.55, 0.265774
1676.09, 0.265774
1676.64, 0.265839
1677.18, 0.265967
1677.72, 0.266031
1678.26, 0.266031
1678.81, 0.266096
1679.35, 0.266353
1679.89, 0.266803
1680.44, 0.266867
1680.98, 0.266995
1681.53, 0.266867
1682.07, 0.266931
1682.62, 0.267317
1683.17, 0.267445
1683.71, 0.267381
1684.26, 0.267317
1684.81, 0.267188
1685.36, 0.267317
1685.9, 0.267381
1686.45, 0.267638
1687.0, 0.267959
1687.55, 0.267831
1688.1, 0.267702
1688.65, 0.268088
1689.2, 0.268345
1689.75, 0.268409
1690.3, 0.268345
1690.85, 0.268280
1691.41, 0.268602
1691.96, 0.268795
1692.51, 0.268730
1693.06, 0.268730
1693.61, 0.268923
1694.17, 0.269180
1694.72, 0.269116
1695.28, 0.269244
1695.83, 0.269501
1696.39, 0.269694
1696.94, 0.269758
1697.5, 0.270015
1698.05, 0.270080
1698.61, 0.269823
1699.17, 0.269694
1699.72, 0.269823
1700.28, 0.270015
1700.84, 0.270080
1701.4, 0.270080
1701.95, 0.270208
1702.51, 0.270208
1703.07, 0.270337
1703.63, 0.270272
1704.19, 0.270465
1704.75, 0.270530
1705.31, 0.270787
1705.88, 0.271044
1706.44, 0.270851
1707.0, 0.270594
1707.56, 0.270722
1708.12, 0.271108
1708.69, 0.271236
1709.25, 0.271172
1709.81, 0.271172
1710.38, 0.271301
1710.94, 0.271558
1711.51, 0.271622
1712.07, 0.271622
1712.64, 0.271750
1713.2, 0.271815
1713.77, 0.271815
1714.34, 0.271750
1714.9, 0.271686
1715.47, 0.271943
1716.04, 0.272200
1716.61, 0.272265
1717.18, 0.272393
1717.74, 0.272457
1718.31, 0.272393
1718.88, 0.272393
1719.45, 0.272393
1720.02, 0.272586
1720.59, 0.272843
1721.17, 0.272843
1721.74, 0.273036
1722.31, 0.273293
1722.88, 0.273164
1723.45, 0.273228
1724.03, 0.273485
1724.6, 0.273421
1725.18, 0.273421
1725.75, 0.273228
1726.33, 0.273421
1726.9, 0.273485
1727.48, 0.273485
1728.05, 0.273485
1728.63, 0.273485
1729.2, 0.273550
1729.78, 0.273678
1730.36, 0.273742
1730.94, 0.273871
1731.51, 0.274192
1732.09, 0.273935
1732.67, 0.273807
1733.25, 0.274064
1733.83, 0.274192
1734.41, 0.274192
1734.99, 0.274449
1735.57, 0.274835
1736.15, 0.274963
1736.73, 0.275028
1737.32, 0.274899
1737.9, 0.274771
1738.48, 0.274578
1739.07, 0.274706
1739.65, 0.274899
1740.23, 0.274963
1740.82, 0.275220
1741.4, 0.275606
1741.99, 0.275734
1742.57, 0.275670
1743.16, 0.275670
1743.74, 0.275734
1744.33, 0.275863
1744.92, 0.275992
1745.51, 0.276184
1746.09, 0.276184
1746.68, 0.276184
1747.27, 0.276313
1747.86, 0.276249
1748.45, 0.276249
1749.04, 0.276506
1749.63, 0.276763
1750.22, 0.276634
1750.81, 0.276441
1751.4, 0.276570
1751.99, 0.276955
1752.59, 0.277148
1753.18, 0.277277
1753.77, 0.277341
1754.37, 0.277084
1754.96, 0.276891
1755.56, 0.277084
1756.15, 0.277341
1756.74, 0.277534
1757.34, 0.277662
1757.94, 0.277598
1758.53, 0.277405
1759.13, 0.277405
1759.73, 0.277662
1760.32, 0.277984
1760.92, 0.278176
1761.52, 0.277919
1762.12, 0.277919
1762.72, 0.278176
1763.32, 0.278562
1763.92, 0.278755
1764.52, 0.278883
1765.12, 0.279140
1765.72, 0.278947
1766.32, 0.279140
1766.92, 0.279076
1767.53, 0.278883
1768.13, 0.279204
1768.73, 0.279269
1769.34, 0.279012
1769.94, 0.279140
1770.55, 0.279462
1771.15, 0.279462
1771.76, 0.279462
1772.36, 0.279783
1772.97, 0.279911
1773.57, 0.279911
1774.18, 0.280168
1774.79, 0.280040
1775.4, 0.280104
1776.0, 0.280104
1776.61, 0.280233
1777.22, 0.280297
1777.83, 0.280361
1778.44, 0.280297
1779.05, 0.280297
1779.66, 0.280554
1780.27, 0.280682
1780.88, 0.280875
1781.5, 0.280747
1782.11, 0.280682
1782.72, 0.280875
1783.33, 0.280939
1783.95, 0.281068
1784.56, 0.281261
1785.18, 0.281261
1785.79, 0.281196
1786.41, 0.281261
1787.02, 0.281389
1787.64, 0.281325
1788.26, 0.281389
1788.87, 0.281454
1789.49, 0.281325
1790.11, 0.281325
1790.73, 0.281389
1791.35, 0.281454
1791.96, 0.281518
1792.58, 0.281903
1793.21, 0.282032
1793.83, 0.282032
1794.45, 0.282096
1795.07, 0.282032
1795.69, 0.282096
1796.31, 0.282417
1796.93, 0.282417
1797.56, 0.282289
1798.18, 0.282160
1798.8, 0.282289
1799.43, 0.282225
1800.05, 0.282289
1800.68, 0.282160
1801.3, 0.282225
1801.93, 0.282353
1802.56, 0.282482
1803.18, 0.282674
1803.81, 0.282931
1804.44, 0.282996
1805.07, 0.282931
1805.7, 0.282867
1806.33, 0.282546
1806.95, 0.282610
1807.58, 0.282931
1808.22, 0.283060
1808.85, 0.283188
1809.48, 0.283317
1810.11, 0.283381
1810.74, 0.283381
1811.38, 0.283381
1812.01, 0.283574
1812.64, 0.283638
1813.28, 0.283446
1813.91, 0.283317
1814.55, 0.283381
1815.18, 0.283381
1815.82, 0.283510
1816.45, 0.283831
1817.09, 0.284088
1817.73, 0.284152
1818.36, 0.283960
1819.0, 0.283831
1819.64, 0.283895
1820.28, 0.283895
1820.92, 0.283960
1821.56, 0.284024
1822.2, 0.284088
1822.84, 0.284409
1823.48, 0.284538
1824.12, 0.284731
1824.76, 0.284795
1825.41, 0.284409
1826.05, 0.284217
1826.69, 0.284538
1827.34, 0.284923
1827.98, 0.284988
1828.63, 0.284988
1829.27, 0.285181
1829.92, 0.284795
1830.56, 0.284602
1831.21, 0.285052
1831.86, 0.285245
1832.5, 0.285245
1833.15, 0.285502
1833.8, 0.285630
1834.45, 0.285502
1835.1, 0.285245
1835.75, 0.284988
1836.4, 0.285181
1837.05, 0.285438
1837.7, 0.285566
1838.35, 0.285823
1839.01, 0.285695
1839.66, 0.285759
1840.31, 0.286080
1840.96, 0.286080
1841.62, 0.285952
1842.27, 0.286209
1842.93, 0.286401
1843.58, 0.286466
1844.24, 0.286723
1844.9, 0.286916
1845.55, 0.286723
1846.21, 0.286466
1846.87, 0.286144
1847.53, 0.286273
1848.18, 0.286337
1848.84, 0.286530
1849.5, 0.286723
1850.16, 0.286916
1850.82, 0.287173
1851.48, 0.287301
1852.14, 0.287108
1852.81, 0.286980
1853.47, 0.286851
1854.13, 0.286980
1854.8, 0.287430
1855.46, 0.287237
1856.12, 0.287108
1856.79, 0.287237
1857.45, 0.287430
1858.12, 0.287622
1858.79, 0.287494
1859.45, 0.287301
1860.12, 0.287430
1860.79, 0.287815
1861.46, 0.288072
1862.12, 0.288136
1862.79, 0.288072
1863.46, 0.288008
1864.13, 0.288008
1864.8, 0.288072
1865.48, 0.288265
1866.15, 0.288393
1866.82, 0.288008
1867.49, 0.287687
1868.16, 0.287944
1868.84, 0.288393
1869.51, 0.288458
1870.19, 0.287944
1870.86, 0.287430
1871.54, 0.287879
1872.21, 0.288072
1872.89, 0.287751
1873.56, 0.288008
1874.24, 0.288458
1874.92, 0.288650
1875.6, 0.288522
1876.28, 0.288393
1876.96, 0.288329
1877.64, 0.288522
1878.32, 0.288779
1879.0, 0.288843
1879.68, 0.289036
1880.36, 0.289036
1881.04, 0.288972
1881.73, 0.288908
1882.41, 0.288972
1883.09, 0.288972
1883.78, 0.288715
1884.46, 0.288972
1885.15, 0.289293
1885.83, 0.289100
1886.52, 0.288972
1887.21, 0.289293
1887.89, 0.289422
1888.58, 0.289357
1889.27, 0.289357
1889.96, 0.289293
