Database of Origin,USGS Spectral Database
Sample Description,See USGS database for additional info
Date Added,2017-02-22 02:48:42.976833

Data ID,USGS_ule04          
Sample ID,ulexite_hs4413b.23282
Mineral Name,ulexite

Wavelength
1499.61, 0.145252
1500.04, 0.145003
1500.48, 0.144604
1500.91, 0.144953
1501.35, 0.144853
1501.78, 0.144903
1502.22, 0.144853
1502.65, 0.144953
1503.09, 0.144704
1503.53, 0.144455
1503.96, 0.144555
1504.4, 0.144903
1504.83, 0.144953
1505.27, 0.145451
1505.71, 0.145550
1506.15, 0.145500
1506.58, 0.145401
1507.02, 0.145600
1507.46, 0.145849
1507.9, 0.146844
1508.34, 0.147193
1508.78, 0.146446
1509.21, 0.146645
1509.66, 0.146795
1510.09, 0.146596
1510.53, 0.146745
1510.97, 0.146994
1511.42, 0.147492
1511.86, 0.147840
1512.3, 0.148188
1512.74, 0.148537
1513.18, 0.148736
1513.62, 0.148537
1514.06, 0.148487
1514.51, 0.148636
1514.95, 0.149184
1515.39, 0.149732
1515.83, 0.150528
1516.28, 0.150180
1516.72, 0.149781
1517.16, 0.150329
1517.61, 0.150578
1518.05, 0.150428
1518.5, 0.150478
1518.94, 0.150727
1519.39, 0.151225
1519.83, 0.151026
1520.28, 0.151026
1520.73, 0.151324
1521.17, 0.151772
1521.62, 0.152071
1522.07, 0.151972
1522.51, 0.151474
1522.96, 0.152370
1523.41, 0.153266
1523.85, 0.153614
1524.3, 0.153515
1524.75, 0.153813
1525.2, 0.154112
1525.65, 0.154660
1526.1, 0.154460
1526.55, 0.154212
1527.0, 0.153863
1527.45, 0.153813
1527.9, 0.154112
1528.35, 0.155008
1528.8, 0.155356
1529.25, 0.155506
1529.7, 0.155804
1530.15, 0.156651
1530.6, 0.156850
1531.05, 0.157049
1531.51, 0.157099
1531.96, 0.157248
1532.41, 0.157447
1532.87, 0.157397
1533.32, 0.157646
1533.77, 0.158393
1534.23, 0.158692
1534.68, 0.158393
1535.14, 0.158692
1535.59, 0.159289
1536.05, 0.159339
1536.5, 0.159438
1536.96, 0.159388
1537.41, 0.159488
1537.87, 0.159986
1538.32, 0.160732
1538.78, 0.160932
1539.24, 0.161330
1539.7, 0.161330
1540.15, 0.161180
1540.61, 0.161529
1541.07, 0.161977
1541.53, 0.161927
1541.98, 0.162724
1542.44, 0.162724
1542.9, 0.162773
1543.36, 0.163420
1543.82, 0.164068
1544.28, 0.164466
1544.74, 0.164615
1545.2, 0.164267
1545.66, 0.164814
1546.12, 0.165013
1546.59, 0.165412
1547.05, 0.165561
1547.51, 0.165810
1547.97, 0.166208
1548.43, 0.166009
1548.9, 0.165660
1549.36, 0.166208
1549.82, 0.166507
1550.29, 0.166756
1550.75, 0.166855
1551.21, 0.167602
1551.68, 0.167900
1552.14, 0.167801
1552.61, 0.168000
1553.07, 0.168348
1553.54, 0.168647
1554.0, 0.169045
1554.47, 0.169195
1554.93, 0.169294
1555.4, 0.169145
1555.87, 0.169493
1556.34, 0.169742
1556.8, 0.169892
1557.27, 0.170290
1557.74, 0.170638
1558.21, 0.170738
1558.68, 0.170738
1559.14, 0.170837
1559.61, 0.171136
1560.08, 0.171534
1560.55, 0.172231
1561.02, 0.172231
1561.49, 0.172430
1561.96, 0.172480
1562.43, 0.172331
1562.9, 0.172331
1563.38, 0.172530
1563.85, 0.172480
1564.32, 0.172828
1564.79, 0.173276
1565.26, 0.173874
1565.74, 0.173724
1566.21, 0.173525
1566.68, 0.173426
1567.16, 0.173326
1567.63, 0.173227
1568.1, 0.174123
1568.58, 0.174421
1569.05, 0.174521
1569.53, 0.174571
1570.0, 0.174720
1570.48, 0.174720
1570.96, 0.174820
1571.43, 0.174471
1571.91, 0.174820
1572.39, 0.174919
1572.86, 0.175068
1573.34, 0.175068
1573.82, 0.175417
1574.3, 0.175616
1574.77, 0.175566
1575.25, 0.175566
1575.73, 0.175765
1576.21, 0.175118
1576.69, 0.174820
1577.17, 0.175118
1577.65, 0.175716
1578.13, 0.175865
1578.61, 0.176263
1579.09, 0.176562
1579.57, 0.176462
1580.05, 0.176263
1580.54, 0.176910
1581.02, 0.176860
1581.5, 0.176761
1581.98, 0.176960
1582.47, 0.177358
1582.95, 0.177010
1583.43, 0.177010
1583.92, 0.177109
1584.4, 0.176811
1584.88, 0.177010
1585.37, 0.177508
1585.85, 0.177259
1586.34, 0.177408
1586.82, 0.177358
1587.31, 0.177458
1587.8, 0.177508
1588.28, 0.177906
1588.77, 0.177906
1589.26, 0.177557
1589.74, 0.177358
1590.23, 0.177657
1590.72, 0.177607
1591.21, 0.177458
1591.7, 0.177557
1592.19, 0.178155
1592.67, 0.178304
1593.16, 0.177906
1593.65, 0.177906
1594.14, 0.178204
1594.63, 0.177806
1595.12, 0.177806
1595.61, 0.178354
1596.11, 0.178652
1596.6, 0.178055
1597.09, 0.177806
1597.58, 0.178005
1598.08, 0.178155
1598.57, 0.178354
1599.06, 0.178553
1599.55, 0.178453
1600.05, 0.178702
1600.54, 0.178453
1601.04, 0.178254
1601.53, 0.178055
1602.03, 0.178254
1602.52, 0.178404
1603.02, 0.178404
1603.51, 0.178453
1604.01, 0.178553
1604.5, 0.178702
1605.0, 0.178802
1605.5, 0.178802
1606.0, 0.178702
1606.49, 0.178503
1606.99, 0.178603
1607.49, 0.178702
1607.99, 0.178802
1608.49, 0.178503
1608.99, 0.178802
1609.49, 0.179399
1609.99, 0.179150
1610.49, 0.178453
1610.99, 0.178453
1611.49, 0.178453
1611.99, 0.178852
1612.49, 0.178752
1612.99, 0.178802
1613.49, 0.179100
1614.0, 0.179300
1614.5, 0.179001
1615.0, 0.179051
1615.51, 0.179100
1616.01, 0.179051
1616.51, 0.179100
1617.02, 0.179300
1617.52, 0.178951
1618.03, 0.178802
1618.53, 0.178901
1619.04, 0.178852
1619.54, 0.178702
1620.05, 0.178852
1620.55, 0.178752
1621.06, 0.178901
1621.57, 0.179051
1622.08, 0.178802
1622.58, 0.178354
1623.09, 0.178503
1623.6, 0.178404
1624.11, 0.178652
1624.62, 0.178752
1625.13, 0.178404
1625.64, 0.178503
1626.15, 0.178652
1626.66, 0.178752
1627.17, 0.178752
1627.68, 0.178652
1628.19, 0.178652
1628.7, 0.178652
1629.21, 0.179001
1629.72, 0.178951
1630.24, 0.178852
1630.75, 0.178852
1631.26, 0.178802
1631.78, 0.178702
1632.29, 0.178802
1632.8, 0.178652
1633.32, 0.178453
1633.83, 0.178652
1634.35, 0.178852
1634.86, 0.178702
1635.38, 0.178503
1635.9, 0.178603
1636.41, 0.178652
1636.93, 0.178453
1637.45, 0.178404
1637.96, 0.178553
1638.48, 0.178901
1639.0, 0.178951
1639.52, 0.178802
1640.04, 0.178553
1640.56, 0.178652
1641.08, 0.178852
1641.59, 0.178901
1642.11, 0.178553
1642.63, 0.178204
1643.16, 0.178204
1643.68, 0.178404
1644.2, 0.178354
1644.72, 0.178453
1645.24, 0.178354
1645.76, 0.178155
1646.29, 0.178055
1646.81, 0.178453
1647.33, 0.178553
1647.86, 0.178254
1648.38, 0.178354
1648.9, 0.178702
1649.43, 0.178254
1649.95, 0.178204
1650.48, 0.178453
1651.0, 0.178304
1651.53, 0.178105
1652.06, 0.178304
1652.58, 0.178453
1653.11, 0.178702
1653.64, 0.178802
1654.17, 0.178852
1654.69, 0.178354
1655.22, 0.178254
1655.75, 0.178204
1656.28, 0.177956
1656.81, 0.177607
1657.34, 0.177856
1657.87, 0.178055
1658.4, 0.178453
1658.93, 0.178453
1659.46, 0.178204
1659.99, 0.178155
1660.52, 0.178503
1661.05, 0.178603
1661.59, 0.178603
1662.12, 0.178254
1662.65, 0.178005
1663.19, 0.178055
1663.72, 0.178304
1664.26, 0.178453
1664.79, 0.178304
1665.32, 0.178155
1665.86, 0.178404
1666.39, 0.178603
1666.93, 0.178852
1667.47, 0.178702
1668.0, 0.178802
1668.54, 0.178553
1669.08, 0.178453
1669.61, 0.178652
1670.15, 0.178802
1670.69, 0.178553
1671.23, 0.178404
1671.77, 0.178354
1672.31, 0.178404
1672.85, 0.178204
1673.39, 0.178304
1673.93, 0.178204
1674.47, 0.178553
1675.01, 0.178752
1675.55, 0.178702
1676.09, 0.178553
1676.64, 0.178304
1677.18, 0.178304
1677.72, 0.178702
1678.26, 0.178802
1678.81, 0.178901
1679.35, 0.178852
1679.89, 0.178852
1680.44, 0.178553
1680.98, 0.178603
1681.53, 0.178852
1682.07, 0.178951
1682.62, 0.178603
1683.17, 0.178951
1683.71, 0.178951
1684.26, 0.178652
1684.81, 0.178553
1685.36, 0.178503
1685.9, 0.178652
1686.45, 0.178852
1687.0, 0.178901
1687.55, 0.178901
1688.1, 0.178901
1688.65, 0.178852
1689.2, 0.178901
1689.75, 0.178951
1690.3, 0.178752
1690.85, 0.178852
1691.41, 0.178802
1691.96, 0.178802
1692.51, 0.178852
1693.06, 0.178652
1693.61, 0.178553
1694.17, 0.178603
1694.72, 0.178553
1695.28, 0.178652
1695.83, 0.178603
1696.39, 0.178652
1696.94, 0.178702
1697.5, 0.178752
1698.05, 0.178603
1698.61, 0.178453
1699.17, 0.178304
1699.72, 0.178354
1700.28, 0.178404
1700.84, 0.178553
1701.4, 0.178553
1701.95, 0.178503
1702.51, 0.178404
1703.07, 0.178503
1703.63, 0.178453
1704.19, 0.178404
1704.75, 0.178254
1705.31, 0.178254
1705.88, 0.178005
1706.44, 0.177956
1707.0, 0.178005
1707.56, 0.178304
1708.12, 0.178304
1708.69, 0.178204
1709.25, 0.178105
1709.81, 0.178204
1710.38, 0.177856
1710.94, 0.177756
1711.51, 0.177707
1712.07, 0.177756
1712.64, 0.177607
1713.2, 0.177508
1713.77, 0.177308
1714.34, 0.177508
1714.9, 0.177607
1715.47, 0.177756
1716.04, 0.177707
1716.61, 0.177508
1717.18, 0.177259
1717.74, 0.177159
1718.31, 0.177010
1718.88, 0.177209
1719.45, 0.177408
1720.02, 0.177308
1720.59, 0.177159
1721.17, 0.177308
1721.74, 0.177060
1722.31, 0.176860
1722.88, 0.176960
1723.45, 0.176960
1724.03, 0.176711
1724.6, 0.176910
1725.18, 0.177060
1725.75, 0.176960
1726.33, 0.176960
1726.9, 0.177010
1727.48, 0.176711
1728.05, 0.176761
1728.63, 0.176711
1729.2, 0.176661
1729.78, 0.176661
1730.36, 0.176910
1730.94, 0.176960
1731.51, 0.176910
1732.09, 0.176711
1732.67, 0.176910
1733.25, 0.176960
1733.83, 0.176960
1734.41, 0.176860
1734.99, 0.176761
1735.57, 0.176661
1736.15, 0.176761
1736.73, 0.176811
1737.32, 0.176910
1737.9, 0.176761
1738.48, 0.176612
1739.07, 0.176363
1739.65, 0.176462
1740.23, 0.176462
1740.82, 0.176412
1741.4, 0.176462
1741.99, 0.176512
1742.57, 0.176114
1743.16, 0.175865
1743.74, 0.175815
1744.33, 0.176014
1744.92, 0.176313
1745.51, 0.176363
1746.09, 0.176064
1746.68, 0.176114
1747.27, 0.176363
1747.86, 0.176412
1748.45, 0.176213
1749.04, 0.176313
1749.63, 0.176064
1750.22, 0.175865
1750.81, 0.175716
1751.4, 0.175765
1751.99, 0.175815
1752.59, 0.175865
1753.18, 0.175716
1753.77, 0.175964
1754.37, 0.175964
1754.96, 0.175865
1755.56, 0.175666
1756.15, 0.175616
1756.74, 0.175815
1757.34, 0.176014
1757.94, 0.175964
1758.53, 0.175915
1759.13, 0.175616
1759.73, 0.175367
1760.32, 0.175417
1760.92, 0.175716
1761.52, 0.175716
1762.12, 0.175666
1762.72, 0.175666
1763.32, 0.175765
1763.92, 0.175616
1764.52, 0.175616
1765.12, 0.175417
1765.72, 0.175417
1766.32, 0.175467
1766.92, 0.175417
1767.53, 0.175367
1768.13, 0.175417
1768.73, 0.175317
1769.34, 0.175516
1769.94, 0.175716
1770.55, 0.175666
1771.15, 0.175317
1771.76, 0.175218
1772.36, 0.175118
1772.97, 0.175268
1773.57, 0.175317
1774.18, 0.175417
1774.79, 0.175467
1775.4, 0.175516
1776.0, 0.175317
1776.61, 0.175317
1777.22, 0.175268
1777.83, 0.175317
1778.44, 0.175218
1779.05, 0.175268
1779.66, 0.175118
1780.27, 0.175218
1780.88, 0.175317
1781.5, 0.175516
1782.11, 0.175566
1782.72, 0.175616
1783.33, 0.175865
1783.95, 0.175915
1784.56, 0.175915
1785.18, 0.176064
1785.79, 0.176014
1786.41, 0.176114
1787.02, 0.176213
1787.64, 0.176412
1788.26, 0.176462
1788.87, 0.176512
1789.49, 0.176512
1790.11, 0.176512
1790.73, 0.176661
1791.35, 0.177010
1791.96, 0.177109
1792.58, 0.177010
1793.21, 0.176910
1793.83, 0.177209
1794.45, 0.177308
1795.07, 0.177259
1795.69, 0.177259
1796.31, 0.177508
1796.93, 0.177806
1797.56, 0.177906
1798.18, 0.178005
1798.8, 0.178055
1799.43, 0.178055
1800.05, 0.178204
1800.68, 0.178354
1801.3, 0.178503
1801.93, 0.178453
1802.56, 0.178603
1803.18, 0.178503
1803.81, 0.178553
1804.44, 0.178752
1805.07, 0.179001
1805.7, 0.178802
1806.33, 0.178901
1806.95, 0.179200
1807.58, 0.179499
1808.22, 0.179499
1808.85, 0.179250
1809.48, 0.179250
1810.11, 0.179300
1810.74, 0.179150
1811.38, 0.179648
1812.01, 0.179996
1812.64, 0.179897
1813.28, 0.179748
1813.91, 0.179797
1814.55, 0.179748
1815.18, 0.179698
1815.82, 0.179748
1816.45, 0.179996
1817.09, 0.180096
1817.73, 0.180096
1818.36, 0.179897
1819.0, 0.179996
1819.64, 0.179996
1820.28, 0.179847
1820.92, 0.180046
1821.56, 0.180196
1822.2, 0.180146
1822.84, 0.180245
1823.48, 0.180345
1824.12, 0.180395
1824.76, 0.180295
1825.41, 0.179897
1826.05, 0.179349
1826.69, 0.179648
1827.34, 0.179996
1827.98, 0.179897
1828.63, 0.179847
1829.27, 0.179947
1829.92, 0.179648
1830.56, 0.179548
1831.21, 0.179499
1831.86, 0.179499
1832.5, 0.179449
1833.15, 0.179698
1833.8, 0.179648
1834.45, 0.179051
1835.1, 0.178652
1835.75, 0.178553
1836.4, 0.178702
1837.05, 0.178752
1837.7, 0.178404
1838.35, 0.178752
1839.01, 0.178503
1839.66, 0.177956
1840.31, 0.178055
1840.96, 0.177906
1841.62, 0.177209
1842.27, 0.177657
1842.93, 0.178005
1843.58, 0.178005
1844.24, 0.177856
1844.9, 0.177607
1845.55, 0.177408
1846.21, 0.176960
1846.87, 0.175964
1847.53, 0.175765
1848.18, 0.175716
1848.84, 0.176064
1849.5, 0.176213
1850.16, 0.176014
1850.82, 0.175666
1851.48, 0.175516
1852.14, 0.175218
1852.81, 0.174620
1853.47, 0.173874
1854.13, 0.173973
1854.8, 0.174172
1855.46, 0.173924
1856.12, 0.173127
1856.79, 0.172779
1857.45, 0.172928
1858.12, 0.172828
1858.79, 0.171883
1859.45, 0.170738
1860.12, 0.170588
1860.79, 0.170937
1861.46, 0.170837
1862.12, 0.170489
1862.79, 0.169892
1863.46, 0.169244
1864.13, 0.168548
1864.8, 0.168299
1865.48, 0.168149
1866.15, 0.167652
1866.82, 0.166606
1867.49, 0.165611
1868.16, 0.165212
1868.84, 0.165063
1869.51, 0.164416
1870.19, 0.163371
1870.86, 0.162226
1871.54, 0.162176
1872.21, 0.161678
1872.89, 0.160732
1873.56, 0.160384
1874.24, 0.160036
1874.92, 0.159339
1875.6, 0.158542
1876.28, 0.157497
1876.96, 0.156850
1877.64, 0.156452
1878.32, 0.155954
1879.0, 0.155257
1879.68, 0.154460
1880.36, 0.153515
1881.04, 0.152668
1881.73, 0.151872
1882.41, 0.151026
1883.09, 0.149881
1883.78, 0.148736
1884.46, 0.147989
1885.15, 0.147392
1885.83, 0.146297
1886.52, 0.145152
1887.21, 0.144256
1887.89, 0.143460
1888.58, 0.142414
1889.27, 0.141120
1889.96, 0.139726
1890.65, 0.139079
1891.34, 0.138084
1892.03, 0.136839
1892.72, 0.135794
1893.41, 0.134748
1894.1, 0.133653
1894.79, 0.132558
1895.49, 0.131314
1896.18, 0.130268
1896.87, 0.129024
1897.57, 0.127580
1898.26, 0.126286
1898.96, 0.124843
1899.65, 0.123499
1900.35, 0.122603
1901.05, 0.121756
1901.74, 0.120661
1902.44, 0.118969
1903.14, 0.117625
1903.84, 0.116629
1904.54, 0.115236
1905.24, 0.113692
1905.94, 0.112647
1906.64, 0.111403
1907.34, 0.110357
1908.04, 0.109262
1908.75, 0.108068
1909.45, 0.106873
1910.15, 0.105728
1910.86, 0.104434
1911.56, 0.103289
1912.27, 0.101945
1912.97, 0.100302
1913.68, 0.0989580
1914.39, 0.0982610
1915.09, 0.0971160
1915.8, 0.0959220
1916.51, 0.0948270
1917.22, 0.0938310
1917.93, 0.0926860
1918.64, 0.0914420
1919.35, 0.0900480
1920.06, 0.0888040
1920.77, 0.0876590
1921.48, 0.0868120
1922.19, 0.0856680
1922.91, 0.0846220
1923.62, 0.0834770
1924.33, 0.0823820
1925.05, 0.0813870
1925.76, 0.0801920
1926.48, 0.0789970
1927.19, 0.0781010
1927.91, 0.0769560
1928.63, 0.0758120
1929.35, 0.0747660
1930.07, 0.0736210
1930.78, 0.0723770
1931.5, 0.0714310
1932.22, 0.0704360
1932.94, 0.0693400
1933.66, 0.0682450
1934.39, 0.0673990
1935.11, 0.0663040
1935.83, 0.0652590
1936.55, 0.0642130
1937.28, 0.0633170
1938.0, 0.0623720
1938.73, 0.0614260
1939.45, 0.0604800
1940.18, 0.0595840
1940.9, 0.0586880
1941.63, 0.0579910
1942.36, 0.0573440
1943.09, 0.0565970
1943.81, 0.0557510
1944.54, 0.0551540
1945.27, 0.0545560
1946.0, 0.0539590
1946.73, 0.0534120
1947.47, 0.0531130
1948.2, 0.0527640
1948.93, 0.0525160
1949.66, 0.0521170
1950.4, 0.0520180
1951.13, 0.0519680
1951.86, 0.0519180
1952.6, 0.0518680
1953.34, 0.0519180
1954.07, 0.0520180
1954.81, 0.0522670
1955.55, 0.0523660
1956.29, 0.0526150
1957.02, 0.0530630
1957.76, 0.0535610
1958.5, 0.0538600
1959.24, 0.0542580
1959.98, 0.0547060
1960.72, 0.0554030
1961.47, 0.0559000
1962.21, 0.0563980
1962.95, 0.0569960
1963.7, 0.0576430
1964.44, 0.0579910
1965.18, 0.0584890
1965.93, 0.0590360
1966.67, 0.0595340
1967.42, 0.0600820
1968.17, 0.0606790
1968.92, 0.0610770
1969.66, 0.0614760
1970.41, 0.0617740
1971.16, 0.0621230
1971.91, 0.0625710
1972.66, 0.0631180
1973.41, 0.0634170
1974.16, 0.0638150
1974.92, 0.0642130
1975.67, 0.0645120
1976.42, 0.0648110
1977.18, 0.0652590
1977.93, 0.0655080
1978.69, 0.0658560
1979.44, 0.0661550
1980.2, 0.0665530
1980.95, 0.0669010
1981.71, 0.0672000
1982.47, 0.0675480
1983.23, 0.0679960
1983.99, 0.0685940
1984.74, 0.0692410
1985.51, 0.0695400
1986.27, 0.0699880
1987.03, 0.0704850
1987.79, 0.0711820
1988.55, 0.0717800
1989.32, 0.0723770
1990.08, 0.0729240
1990.84, 0.0733720
1991.61, 0.0739200
1992.37, 0.0745670
1993.14, 0.0751640
1993.9, 0.0756620
1994.67, 0.0761100
1995.44, 0.0766080
1996.21, 0.0770560
1996.98, 0.0778030
1997.75, 0.0782010
1998.52, 0.0786990
1999.29, 0.0792460
2000.06, 0.0797440
2000.83, 0.0801920
2001.6, 0.0806400
2002.38, 0.0810380
2003.15, 0.0815360
2003.93, 0.0819340
2004.7, 0.0823820
2005.48, 0.0826310
2006.25, 0.0830290
2007.03, 0.0834280
2007.81, 0.0839250
2008.58, 0.0842240
2009.36, 0.0844230
2010.14, 0.0849210
2010.92, 0.0854190
2011.7, 0.0855180
2012.48, 0.0856180
2013.26, 0.0858670
2014.05, 0.0860660
2014.83, 0.0864640
2015.61, 0.0869620
2016.4, 0.0870610
2017.18, 0.0871110
2017.97, 0.0874600
2018.75, 0.0877580
2019.54, 0.0878080
2020.32, 0.0880570
2021.11, 0.0881560
2021.9, 0.0882060
2022.69, 0.0883560
2023.48, 0.0885550
2024.27, 0.0886540
2025.06, 0.0887540
2025.85, 0.0888530
2026.64, 0.0891520
2027.44, 0.0892520
2028.23, 0.0893010
2029.02, 0.0893010
2029.82, 0.0895000
2030.61, 0.0896500
2031.41, 0.0898490
2032.2, 0.0897490
2033.0, 0.0896500
2033.8, 0.0897490
2034.6, 0.0899480
2035.4, 0.0899480
2036.2, 0.0899980
2037.0, 0.0898490
2037.8, 0.0898990
2038.6, 0.0900480
2039.4, 0.0901970
2040.2, 0.0902470
2041.01, 0.0902970
2041.81, 0.0901970
2042.61, 0.0902470
2043.42, 0.0901480
2044.22, 0.0899980
2045.03, 0.0899980
2045.84, 0.0901970
2046.65, 0.0902970
2047.46, 0.0903470
2048.26, 0.0900980
2049.07, 0.0898490
2049.88, 0.0898990
2050.69, 0.0901480
2051.51, 0.0900480
2052.32, 0.0900980
2053.13, 0.0899980
2053.94, 0.0899480
2054.76, 0.0898990
2055.57, 0.0898490
2056.39, 0.0896500
2057.2, 0.0896500
2058.02, 0.0894010
2058.84, 0.0893510
2059.66, 0.0892020
2060.48, 0.0893010
2061.29, 0.0893010
2062.11, 0.0890030
2062.94, 0.0888530
2063.76, 0.0889530
2064.58, 0.0889530
2065.4, 0.0889530
2066.22, 0.0887040
2067.05, 0.0884550
2067.87, 0.0882560
2068.7, 0.0882060
2069.52, 0.0881070
2070.35, 0.0881560
2071.18, 0.0879570
2072.0, 0.0877080
2072.83, 0.0874600
2073.66, 0.0873100
2074.49, 0.0870610
2075.32, 0.0870120
2076.15, 0.0869620
2076.98, 0.0868120
2077.82, 0.0865140
2078.65, 0.0864140
2079.48, 0.0863150
2080.32, 0.0863150
2081.15, 0.0862150
2081.99, 0.0861650
2082.83, 0.0858170
2083.66, 0.0856180
2084.5, 0.0852690
2085.34, 0.0850700
2086.18, 0.0849710
2087.02, 0.0848710
2087.86, 0.0845720
2088.7, 0.0841240
2089.54, 0.0838260
2090.39, 0.0838760
2091.23, 0.0836270
2092.07, 0.0834280
2092.92, 0.0832280
2093.76, 0.0829800
2094.61, 0.0827310
2095.45, 0.0824820
2096.3, 0.0822330
2097.15, 0.0819340
2098.0, 0.0815360
2098.85, 0.0812870
2099.7, 0.0809880
2100.55, 0.0807890
2101.4, 0.0804410
2102.25, 0.0801920
2103.1, 0.0798930
2103.96, 0.0796440
2104.81, 0.0791470
2105.67, 0.0788480
2106.52, 0.0785490
2107.38, 0.0782510
2108.24, 0.0779020
2109.09, 0.0775040
2109.95, 0.0769560
2110.81, 0.0766080
2111.67, 0.0761600
2112.53, 0.0756620
2113.39, 0.0752140
2114.25, 0.0748160
2115.12, 0.0742680
2115.98, 0.0739200
2116.84, 0.0736210
2117.71, 0.0734220
2118.58, 0.0730240
2119.44, 0.0726760
2120.31, 0.0723770
2121.18, 0.0722280
2122.04, 0.0720280
2122.91, 0.0719790
2123.78, 0.0719290
2124.65, 0.0721280
2125.52, 0.0721280
2126.4, 0.0722770
2127.27, 0.0722770
2128.14, 0.0726260
2129.02, 0.0730240
2129.89, 0.0732230
2130.77, 0.0733230
2131.64, 0.0737710
2132.52, 0.0741190
2133.4, 0.0743680
2134.27, 0.0746670
2135.15, 0.0750150
2136.03, 0.0752140
