Database of Origin, USGS Spectral Database
Sample Description, See USGS database for additional info
Date Added,2016-08-10 05:28:03.896337

Data ID,USGS_pyr04          
Sample ID, pyrite_hs35.18561
Mineral Name, pyrite
Material Class,Sulfide

Wavelength
1607.49, 0.0566850
1607.99, 0.0569100
1608.49, 0.0570230
1608.99, 0.0567420
1609.49, 0.0569670
1609.99, 0.0575290
1610.49, 0.0578100
1610.99, 0.0578660
1611.49, 0.0579790
1611.99, 0.0582040
1612.49, 0.0582040
1612.99, 0.0582040
1613.49, 0.0584850
1614.0, 0.0585410
1614.5, 0.0583160
1615.0, 0.0582600
1615.51, 0.0583160
1616.01, 0.0579790
1616.51, 0.0581480
1617.02, 0.0586540
1617.52, 0.0586540
1618.03, 0.0586540
1618.53, 0.0584290
1619.04, 0.0586540
1619.54, 0.0588220
1620.05, 0.0589910
1620.55, 0.0592160
1621.06, 0.0589910
1621.57, 0.0588790
1622.08, 0.0591040
1622.58, 0.0590470
1623.09, 0.0589350
1623.6, 0.0592160
1624.11, 0.0594410
1624.62, 0.0593290
1625.13, 0.0598910
1625.64, 0.0598910
1626.15, 0.0597220
1626.66, 0.0598910
1627.17, 0.0603410
1627.68, 0.0602850
1628.19, 0.0600600
1628.7, 0.0600030
1629.21, 0.0601160
1629.72, 0.0600600
1630.24, 0.0600600
1630.75, 0.0597780
1631.26, 0.0601720
1631.78, 0.0604530
1632.29, 0.0603970
1632.8, 0.0601160
1633.32, 0.0600030
1633.83, 0.0602850
1634.35, 0.0601160
1634.86, 0.0602850
1635.38, 0.0605090
1635.9, 0.0602280
1636.41, 0.0603970
1636.93, 0.0605660
1637.45, 0.0606220
1637.96, 0.0609030
1638.48, 0.0610160
1639.0, 0.0609590
1639.52, 0.0610720
1640.04, 0.0612410
1640.56, 0.0610160
1641.08, 0.0606780
1641.59, 0.0606220
1642.11, 0.0608470
1642.63, 0.0610720
1643.16, 0.0615220
1643.68, 0.0618030
1644.2, 0.0618030
1644.72, 0.0619150
1645.24, 0.0618030
1645.76, 0.0614090
1646.29, 0.0615780
1646.81, 0.0620840
1647.33, 0.0619150
1647.86, 0.0614650
1648.38, 0.0612410
1648.9, 0.0613530
1649.43, 0.0614090
1649.95, 0.0617470
1650.48, 0.0621400
1651.0, 0.0622530
1651.53, 0.0621400
1652.06, 0.0620280
1652.58, 0.0619150
1653.11, 0.0620280
1653.64, 0.0621400
1654.17, 0.0620280
1654.69, 0.0619150
1655.22, 0.0619720
1655.75, 0.0618030
1656.28, 0.0618030
1656.81, 0.0623650
1657.34, 0.0627590
1657.87, 0.0624780
1658.4, 0.0622530
1658.93, 0.0623650
1659.46, 0.0624780
1659.99, 0.0628150
1660.52, 0.0633210
1661.05, 0.0629840
1661.59, 0.0625340
1662.12, 0.0624210
1662.65, 0.0625900
1663.19, 0.0629280
1663.72, 0.0634900
1664.26, 0.0637710
1664.79, 0.0636020
1665.32, 0.0630400
1665.86, 0.0629280
1666.39, 0.0630400
1666.93, 0.0631530
1667.47, 0.0631530
1668.0, 0.0634900
1668.54, 0.0637710
1669.08, 0.0637150
1669.61, 0.0636020
1670.15, 0.0633210
1670.69, 0.0630400
1671.23, 0.0633770
1671.77, 0.0633770
1672.31, 0.0633770
1672.85, 0.0637150
1673.39, 0.0638840
1673.93, 0.0637710
1674.47, 0.0636590
1675.01, 0.0632650
1675.55, 0.0630960
1676.09, 0.0637150
1676.64, 0.0639400
1677.18, 0.0633210
1677.72, 0.0632090
1678.26, 0.0637150
1678.81, 0.0640520
1679.35, 0.0636590
1679.89, 0.0634340
1680.44, 0.0637710
1680.98, 0.0639960
1681.53, 0.0639960
1682.07, 0.0640520
1682.62, 0.0642770
1683.17, 0.0645580
1683.71, 0.0644460
1684.26, 0.0642210
1684.81, 0.0639960
1685.36, 0.0639960
1685.9, 0.0640520
1686.45, 0.0638270
1687.0, 0.0640520
1687.55, 0.0645580
1688.1, 0.0645580
1688.65, 0.0640520
1689.2, 0.0642210
1689.75, 0.0645580
1690.3, 0.0646710
1690.85, 0.0645580
1691.41, 0.0642210
1691.96, 0.0639960
1692.51, 0.0643330
1693.06, 0.0647270
1693.61, 0.0646710
1694.17, 0.0649520
1694.72, 0.0651770
1695.28, 0.0650650
1695.83, 0.0648400
1696.39, 0.0650080
1696.94, 0.0650650
1697.5, 0.0652330
1698.05, 0.0651770
1698.61, 0.0650080
1699.17, 0.0651210
1699.72, 0.0655140
1700.28, 0.0652330
1700.84, 0.0650080
1701.4, 0.0650080
1701.95, 0.0650650
1702.51, 0.0652900
1703.07, 0.0656270
1703.63, 0.0657390
1704.19, 0.0654020
1704.75, 0.0649520
1705.31, 0.0649520
1705.88, 0.0654580
1706.44, 0.0655140
1707.0, 0.0655710
1707.56, 0.0659640
1708.12, 0.0659640
1708.69, 0.0654580
1709.25, 0.0653460
1709.81, 0.0654020
1710.38, 0.0652900
1710.94, 0.0654020
1711.51, 0.0656270
1712.07, 0.0659080
1712.64, 0.0656830
1713.2, 0.0654020
1713.77, 0.0656830
1714.34, 0.0660210
1714.9, 0.0661330
1715.47, 0.0660770
1716.04, 0.0659080
1716.61, 0.0660210
1717.18, 0.0659080
1717.74, 0.0659640
1718.31, 0.0662460
1718.88, 0.0662460
1719.45, 0.0661330
1720.02, 0.0660770
1720.59, 0.0663020
1721.17, 0.0663580
1721.74, 0.0665270
1722.31, 0.0665830
1722.88, 0.0660770
1723.45, 0.0657960
1724.03, 0.0661890
1724.6, 0.0665270
1725.18, 0.0664700
1725.75, 0.0664700
1726.33, 0.0664140
1726.9, 0.0665270
1727.48, 0.0667520
1728.05, 0.0665270
1728.63, 0.0664140
1729.2, 0.0665270
1729.78, 0.0665830
1730.36, 0.0666390
1730.94, 0.0668080
1731.51, 0.0670330
1732.09, 0.0670330
1732.67, 0.0670330
1733.25, 0.0667520
1733.83, 0.0663580
1734.41, 0.0664140
1734.99, 0.0669200
1735.57, 0.0669200
1736.15, 0.0670330
1736.73, 0.0675390
1737.32, 0.0673700
1737.9, 0.0667520
1738.48, 0.0668080
1739.07, 0.0672020
1739.65, 0.0669770
1740.23, 0.0664700
1740.82, 0.0664700
1741.4, 0.0668640
1741.99, 0.0673700
1742.57, 0.0673700
1743.16, 0.0670890
1743.74, 0.0672580
1744.33, 0.0670890
1744.92, 0.0667520
1745.51, 0.0666390
1746.09, 0.0669200
1746.68, 0.0672020
1747.27, 0.0675390
1747.86, 0.0678200
1748.45, 0.0675950
1749.04, 0.0672020
1749.63, 0.0670890
1750.22, 0.0670890
1750.81, 0.0673140
1751.4, 0.0674260
1751.99, 0.0672020
1752.59, 0.0672580
1753.18, 0.0677080
1753.77, 0.0675950
1754.37, 0.0673140
1754.96, 0.0673700
1755.56, 0.0674830
1756.15, 0.0677080
1756.74, 0.0679330
1757.34, 0.0680450
1757.94, 0.0677640
1758.53, 0.0675390
1759.13, 0.0674260
1759.73, 0.0673700
1760.32, 0.0674830
1760.92, 0.0676510
1761.52, 0.0677640
1762.12, 0.0679890
1762.72, 0.0679890
1763.32, 0.0681580
1763.92, 0.0678760
1764.52, 0.0674830
1765.12, 0.0675390
1765.72, 0.0677080
1766.32, 0.0677640
1766.92, 0.0676510
1767.53, 0.0676510
1768.13, 0.0677640
1768.73, 0.0679890
1769.34, 0.0680450
1769.94, 0.0679330
1770.55, 0.0677640
1771.15, 0.0678760
1771.76, 0.0679890
1772.36, 0.0679330
1772.97, 0.0682700
1773.57, 0.0686640
1774.18, 0.0685510
1774.79, 0.0683820
1775.4, 0.0683260
1776.0, 0.0683260
1776.61, 0.0685510
1777.22, 0.0684390
1777.83, 0.0683260
1778.44, 0.0683820
1779.05, 0.0684950
1779.66, 0.0686070
1780.27, 0.0683820
1780.88, 0.0682140
1781.5, 0.0683820
1782.11, 0.0683260
1782.72, 0.0682700
1783.33, 0.0682140
1783.95, 0.0682140
1784.56, 0.0682140
1785.18, 0.0683260
1785.79, 0.0683820
1786.41, 0.0683820
1787.02, 0.0690570
1787.64, 0.0691700
1788.26, 0.0689450
1788.87, 0.0685510
1789.49, 0.0684390
1790.11, 0.0686640
1790.73, 0.0686070
1791.35, 0.0686640
1791.96, 0.0687760
1792.58, 0.0684950
1793.21, 0.0683820
1793.83, 0.0687760
1794.45, 0.0686640
1795.07, 0.0686070
1795.69, 0.0688890
1796.31, 0.0691140
1796.93, 0.0693380
1797.56, 0.0693950
1798.18, 0.0693380
1798.8, 0.0691140
1799.43, 0.0688890
1800.05, 0.0688890
1800.68, 0.0690570
1801.3, 0.0692260
1801.93, 0.0692260
1802.56, 0.0691140
1803.18, 0.0691140
1803.81, 0.0690570
1804.44, 0.0690010
1805.07, 0.0689450
1805.7, 0.0687760
1806.33, 0.0688320
1806.95, 0.0690570
1807.58, 0.0693380
1808.22, 0.0695070
1808.85, 0.0695070
1809.48, 0.0694510
1810.11, 0.0693380
1810.74, 0.0692260
1811.38, 0.0692820
1812.01, 0.0695070
1812.64, 0.0695630
1813.28, 0.0693950
1813.91, 0.0695630
1814.55, 0.0695070
1815.18, 0.0695070
1815.82, 0.0696760
1816.45, 0.0695070
1817.09, 0.0691140
1817.73, 0.0692260
1818.36, 0.0696200
1819.0, 0.0696200
1819.64, 0.0695630
1820.28, 0.0695070
1820.92, 0.0693380
1821.56, 0.0694510
1822.2, 0.0694510
1822.84, 0.0693380
1823.48, 0.0693380
1824.12, 0.0694510
1824.76, 0.0693950
1825.41, 0.0693380
1826.05, 0.0694510
1826.69, 0.0696760
1827.34, 0.0697320
1827.98, 0.0699010
1828.63, 0.0697320
1829.27, 0.0696760
1829.92, 0.0697320
1830.56, 0.0696760
1831.21, 0.0697880
1831.86, 0.0695070
1832.5, 0.0695630
1833.15, 0.0700700
1833.8, 0.0699570
1834.45, 0.0699010
1835.1, 0.0700700
1835.75, 0.0701260
1836.4, 0.0698450
1837.05, 0.0695630
1837.7, 0.0699010
1838.35, 0.0699570
1839.01, 0.0700130
1839.66, 0.0700130
1840.31, 0.0699010
1840.96, 0.0698450
1841.62, 0.0697320
1842.27, 0.0696200
1842.93, 0.0697880
1843.58, 0.0700130
1844.24, 0.0700130
1844.9, 0.0701260
1845.55, 0.0698450
1846.21, 0.0699010
1846.87, 0.0701820
1847.53, 0.0702380
1848.18, 0.0702380
1848.84, 0.0701820
1849.5, 0.0699570
1850.16, 0.0700130
1850.82, 0.0702380
1851.48, 0.0702380
1852.14, 0.0702380
1852.81, 0.0705190
1853.47, 0.0702940
1854.13, 0.0700130
1854.8, 0.0699570
1855.46, 0.0700130
1856.12, 0.0699570
1856.79, 0.0702380
1857.45, 0.0705760
1858.12, 0.0704630
1858.79, 0.0704630
1859.45, 0.0704630
1860.12, 0.0704070
1860.79, 0.0702940
1861.46, 0.0701820
1862.12, 0.0701820
1862.79, 0.0700700
1863.46, 0.0701820
1864.13, 0.0704630
1864.8, 0.0706320
1865.48, 0.0704630
1866.15, 0.0700700
1866.82, 0.0700700
1867.49, 0.0703510
1868.16, 0.0703510
1868.84, 0.0701820
1869.51, 0.0704070
1870.19, 0.0706320
1870.86, 0.0706880
1871.54, 0.0704630
1872.21, 0.0703510
1872.89, 0.0704630
1873.56, 0.0701820
1874.24, 0.0700700
1874.92, 0.0704630
1875.6, 0.0704630
1876.28, 0.0705190
1876.96, 0.0707440
1877.64, 0.0706320
1878.32, 0.0708010
1879.0, 0.0709690
1879.68, 0.0706880
1880.36, 0.0705190
1881.04, 0.0706320
1881.73, 0.0709690
1882.41, 0.0711380
1883.09, 0.0710260
1883.78, 0.0709130
1884.46, 0.0706320
1885.15, 0.0704070
1885.83, 0.0705190
1886.52, 0.0707440
1887.21, 0.0706880
1887.89, 0.0706320
1888.58, 0.0705190
1889.27, 0.0706320
1889.96, 0.0709130
1890.65, 0.0709690
1891.34, 0.0709690
1892.03, 0.0710260
1892.72, 0.0710260
1893.41, 0.0706320
1894.1, 0.0707440
1894.79, 0.0709690
1895.49, 0.0707440
1896.18, 0.0706320
1896.87, 0.0708010
1897.57, 0.0706880
1898.26, 0.0706320
1898.96, 0.0707440
1899.65, 0.0710820
1900.35, 0.0713630
1901.05, 0.0712500
1901.74, 0.0707440
1902.44, 0.0706880
1903.14, 0.0710260
1903.84, 0.0709690
1904.54, 0.0709690
1905.24, 0.0710820
1905.94, 0.0710260
1906.64, 0.0712500
1907.34, 0.0713070
1908.04, 0.0711940
1908.75, 0.0710260
1909.45, 0.0708010
1910.15, 0.0710820
1910.86, 0.0713070
1911.56, 0.0711380
1912.27, 0.0709130
1912.97, 0.0710820
1913.68, 0.0711940
1914.39, 0.0710260
1915.09, 0.0708570
1915.8, 0.0708010
1916.51, 0.0710260
1917.22, 0.0710260
1917.93, 0.0709690
1918.64, 0.0709130
1919.35, 0.0709130
1920.06, 0.0712500
1920.77, 0.0713630
1921.48, 0.0711940
1922.19, 0.0710820
1922.91, 0.0709690
1923.62, 0.0708570
1924.33, 0.0706320
1925.05, 0.0705190
1925.76, 0.0708010
1926.48, 0.0711380
1927.19, 0.0711940
1927.91, 0.0709690
1928.63, 0.0708010
1929.35, 0.0708570
1930.07, 0.0709130
1930.78, 0.0709130
1931.5, 0.0709690
1932.22, 0.0708010
1932.94, 0.0709130
1933.66, 0.0710820
1934.39, 0.0708010
1935.11, 0.0705190
1935.83, 0.0709130
1936.55, 0.0711380
1937.28, 0.0709690
1938.0, 0.0706880
1938.73, 0.0706320
1939.45, 0.0706880
1940.18, 0.0708010
1940.9, 0.0708010
1941.63, 0.0706320
1942.36, 0.0706320
1943.09, 0.0706320
1943.81, 0.0708010
1944.54, 0.0709130
1945.27, 0.0709130
1946.0, 0.0706880
1946.73, 0.0706320
1947.47, 0.0705190
1948.2, 0.0702380
1948.93, 0.0702380
1949.66, 0.0704070
1950.4, 0.0705190
1951.13, 0.0706320
1951.86, 0.0707440
1952.6, 0.0708570
1953.34, 0.0707440
1954.07, 0.0706880
1954.81, 0.0708010
1955.55, 0.0707440
1956.29, 0.0706320
1957.02, 0.0705190
1957.76, 0.0704630
1958.5, 0.0703510
1959.24, 0.0704070
1959.98, 0.0703510
1960.72, 0.0703510
1961.47, 0.0704070
1962.21, 0.0705190
1962.95, 0.0706320
1963.7, 0.0705760
1964.44, 0.0706320
1965.18, 0.0704630
1965.93, 0.0704070
1966.67, 0.0706880
1967.42, 0.0706880
1968.17, 0.0706320
1968.92, 0.0705760
1969.66, 0.0702380
1970.41, 0.0705190
1971.16, 0.0707440
1971.91, 0.0709690
1972.66, 0.0709130
1973.41, 0.0704630
1974.16, 0.0702380
1974.92, 0.0702940
1975.67, 0.0704630
1976.42, 0.0705760
1977.18, 0.0705190
1977.93, 0.0704630
1978.69, 0.0703510
1979.44, 0.0704070
1980.2, 0.0704630
1980.95, 0.0705760
1981.71, 0.0705190
1982.47, 0.0705190
1983.23, 0.0706320
1983.99, 0.0706320
1984.74, 0.0704070
1985.51, 0.0701260
1986.27, 0.0704070
1987.03, 0.0706320
1987.79, 0.0705760
1988.55, 0.0705190
1989.32, 0.0706320
1990.08, 0.0706320
1990.84, 0.0705190
1991.61, 0.0704070
1992.37, 0.0705760
1993.14, 0.0707440
1993.9, 0.0708010
1994.67, 0.0705760
1995.44, 0.0704070
1996.21, 0.0704070
1996.98, 0.0706320
1997.75, 0.0706880
1998.52, 0.0705760
1999.29, 0.0706320
2000.06, 0.0707440
2000.83, 0.0706880
2001.6, 0.0705190
2002.38, 0.0705760
2003.15, 0.0705760
2003.93, 0.0705760
2004.7, 0.0709130
2005.48, 0.0709130
2006.25, 0.0709130
2007.03, 0.0710820
2007.81, 0.0709130
2008.58, 0.0707440
2009.36, 0.0709130
2010.14, 0.0709690
2010.92, 0.0709130
2011.7, 0.0706880
2012.48, 0.0707440
2013.26, 0.0709130
2014.05, 0.0708570
2014.83, 0.0709130
2015.61, 0.0709130
2016.4, 0.0706320
2017.18, 0.0705190
2017.97, 0.0707440
2018.75, 0.0708010
2019.54, 0.0707440
2020.32, 0.0705760
2021.11, 0.0708010
2021.9, 0.0710820
2022.69, 0.0711380
2023.48, 0.0711380
2024.27, 0.0712500
2025.06, 0.0711940
2025.85, 0.0710260
2026.64, 0.0710820
2027.44, 0.0709130
2028.23, 0.0708010
2029.02, 0.0709130
2029.82, 0.0709690
2030.61, 0.0709130
2031.41, 0.0709130
2032.2, 0.0709690
2033.0, 0.0708570
2033.8, 0.0710820
2034.6, 0.0714750
2035.4, 0.0712500
2036.2, 0.0709130
2037.0, 0.0708570
2037.8, 0.0709690
2038.6, 0.0707440
2039.4, 0.0706880
2040.2, 0.0708570
2041.01, 0.0708570
2041.81, 0.0705190
2042.61, 0.0704630
2043.42, 0.0707440
2044.22, 0.0707440
2045.03, 0.0706880
2045.84, 0.0707440
2046.65, 0.0707440
2047.46, 0.0710260
2048.26, 0.0711940
2049.07, 0.0713070
2049.88, 0.0710820
2050.69, 0.0709130
2051.51, 0.0709130
2052.32, 0.0708570
2053.13, 0.0706880
2053.94, 0.0703510
2054.76, 0.0702940
2055.57, 0.0706320
2056.39, 0.0709130
2057.2, 0.0710260
2058.02, 0.0707440
2058.84, 0.0706320
2059.66, 0.0705760
2060.48, 0.0705190
2061.29, 0.0705760
2062.11, 0.0709690
2062.94, 0.0709690
2063.76, 0.0705760
2064.58, 0.0706320
2065.4, 0.0705760
2066.22, 0.0704630
2067.05, 0.0708010
2067.87, 0.0710820
2068.7, 0.0711940
2069.52, 0.0710260
2070.35, 0.0708570
2071.18, 0.0708010
2072.0, 0.0705760
2072.83, 0.0703510
2073.66, 0.0705760
2074.49, 0.0708010
2075.32, 0.0708010
2076.15, 0.0708010
2076.98, 0.0708010
2077.82, 0.0707440
2078.65, 0.0710260
2079.48, 0.0711940
2080.32, 0.0711380
2081.15, 0.0706880
2081.99, 0.0706320
2082.83, 0.0706880
2083.66, 0.0706880
2084.5, 0.0708010
2085.34, 0.0707440
2086.18, 0.0708010
2087.02, 0.0711380
2087.86, 0.0711380
2088.7, 0.0710820
2089.54, 0.0709690
2090.39, 0.0710820
2091.23, 0.0711940
2092.07, 0.0710260
2092.92, 0.0710820
2093.76, 0.0713070
2094.61, 0.0712500
2095.45, 0.0710820
2096.3, 0.0709690
2097.15, 0.0711380
2098.0, 0.0712500
2098.85, 0.0714190
2099.7, 0.0713070
2100.55, 0.0711380
2101.4, 0.0712500
2102.25, 0.0712500
2103.1, 0.0713630
2103.96, 0.0714190
2104.81, 0.0713070
2105.67, 0.0713630
2106.52, 0.0713630
2107.38, 0.0715880
2108.24, 0.0715880
2109.09, 0.0715880
2109.95, 0.0714750
2110.81, 0.0714750
2111.67, 0.0717570
2112.53, 0.0717570
2113.39, 0.0715880
2114.25, 0.0717000
2115.12, 0.0719250
2115.98, 0.0719250
2116.84, 0.0717000
2117.71, 0.0717000
2118.58, 0.0719250
2119.44, 0.0719820
2120.31, 0.0719250
2121.18, 0.0719250
2122.04, 0.0719250
2122.91, 0.0720940
2123.78, 0.0723190
2124.65, 0.0723750
2125.52, 0.0721500
2126.4, 0.0720380
2127.27, 0.0722060
2128.14, 0.0720940
2129.02, 0.0718130
2129.89, 0.0720380
2130.77, 0.0722060
2131.64, 0.0722630
2132.52, 0.0723750
2133.4, 0.0724880
2134.27, 0.0726000
2135.15, 0.0724880
2136.03, 0.0723190
2136.91, 0.0723750
2137.79, 0.0723750
2138.68, 0.0723190
2139.56, 0.0724310
2140.44, 0.0724880
2141.33, 0.0722630
2142.21, 0.0720940
2143.1, 0.0721500
2143.99, 0.0723190
2144.87, 0.0723750
2145.76, 0.0726560
2146.65, 0.0728250
2147.54, 0.0728250
2148.43, 0.0727130
2149.32, 0.0725440
2150.21, 0.0726560
2151.1, 0.0727690
2151.99, 0.0727130
2152.89, 0.0727130
2153.78, 0.0727130
2154.68, 0.0726560
2155.57, 0.0727130
2156.47, 0.0728250
2157.37, 0.0728250
2158.27, 0.0727690
2159.16, 0.0726560
2160.06, 0.0727130
2160.96, 0.0727130
2161.86, 0.0727130
2162.77, 0.0728250
2163.67, 0.0731060
2164.57, 0.0730500
2165.48, 0.0728810
2166.38, 0.0729380
2167.29, 0.0729380
2168.2, 0.0729380
2169.1, 0.0731620
2170.01, 0.0731060
2170.92, 0.0729940
2171.83, 0.0731060
2172.74, 0.0732750
2173.65, 0.0734440
2174.56, 0.0734440
2175.47, 0.0733310
2176.39, 0.0732190
2177.3, 0.0731620
2178.22, 0.0731060
2179.13, 0.0732750
2180.05, 0.0733870
2180.96, 0.0732750
2181.88, 0.0733310
2182.8, 0.0733870
2183.72, 0.0735000
2184.64, 0.0736690
2185.56, 0.0737250
2186.48, 0.0735000
2187.41, 0.0733310
2188.33, 0.0733870
2189.25, 0.0735560
2190.18, 0.0735000
2191.1, 0.0735560
2192.03, 0.0736690
2192.96, 0.0735000
2193.89, 0.0734440
2194.82, 0.0735560
2195.74, 0.0735560
2196.68, 0.0736120
2197.61, 0.0738370
2198.54, 0.0739500
2199.47, 0.0738370
2200.4, 0.0737810
2201.34, 0.0738370
2202.28, 0.0737810
2203.21, 0.0737810
2204.15, 0.0738370
2205.08, 0.0738370
2206.02, 0.0737250
2206.96, 0.0738940
2207.9, 0.0740620
2208.84, 0.0737250
2209.78, 0.0736690
2210.73, 0.0738370
2211.67, 0.0737810
2212.61, 0.0738940
2213.56, 0.0739500
2214.5, 0.0738940
2215.45, 0.0740620
2216.4, 0.0743430
2217.35, 0.0743430
2218.3, 0.0742310
2219.24, 0.0742310
2220.2, 0.0742870
2221.15, 0.0742870
2222.1, 0.0741180
2223.05, 0.0740620
2224.0, 0.0741180
2224.96, 0.0742870
2225.91, 0.0743430
2226.87, 0.0743430
2227.83, 0.0742870
2228.79, 0.0740620
2229.74, 0.0740620
2230.7, 0.0742310
2231.66, 0.0742870
2232.63, 0.0741750
2233.59, 0.0741180
2234.55, 0.0741750
2235.51, 0.0743430
2236.48, 0.0744000
2237.44, 0.0742870
2238.41, 0.0743430
2239.38, 0.0744000
2240.34, 0.0744560
2241.31, 0.0743430
2242.28, 0.0742310
2243.25, 0.0741750
2244.22, 0.0741750
2245.19, 0.0742870
2246.17, 0.0746250
2247.14, 0.0746810
2248.12, 0.0745680
2249.09, 0.0746810
2250.07, 0.0746810
2251.04, 0.0745680
2252.02, 0.0745120
2253.0, 0.0743430
2253.98, 0.0742310
2254.96, 0.0742870
2255.94, 0.0744000
2256.92, 0.0743430
2257.91, 0.0742310
2258.89, 0.0742870
2259.88, 0.0745120
2260.86, 0.0746250
2261.85, 0.0743430
2262.83, 0.0742310
2263.82, 0.0742870
2264.81, 0.0744560
2265.8, 0.0744000
2266.79, 0.0744560
2267.78, 0.0745120
2268.78, 0.0745680
2269.77, 0.0744560
2270.76, 0.0744560
2271.76, 0.0744000
2272.75, 0.0744000
2273.75, 0.0744560
2274.75, 0.0744000
2275.75, 0.0744560
2276.75, 0.0744560
2277.75, 0.0742310
2278.75, 0.0742870
2279.75, 0.0742310
2280.75, 0.0744000
2281.76, 0.0745680
2282.76, 0.0744560
2283.77, 0.0745680
2284.77, 0.0744560
2285.78, 0.0743430
2286.79, 0.0744000
2287.8, 0.0744560
2288.81, 0.0743430
2289.82, 0.0742310
2290.83, 0.0743430
2291.84, 0.0745680
2292.86, 0.0746810
2293.87, 0.0746250
2294.89, 0.0745120
2295.91, 0.0744560
2296.92, 0.0745120
2297.94, 0.0744000
2298.96, 0.0744560
2299.98, 0.0745680
2301.0, 0.0747930
2302.02, 0.0749060
2303.04, 0.0746250
2304.07, 0.0744560
2305.09, 0.0745120
2306.12, 0.0746250
2307.15, 0.0746810
2308.17, 0.0746810
2309.2, 0.0747370
2310.23, 0.0747370
2311.26, 0.0747930
2312.29, 0.0749060
2313.32, 0.0749060
2314.35, 0.0749620
2315.39, 0.0748500
2316.42, 0.0749620
2317.46, 0.0750180
2318.5, 0.0747370
2319.53, 0.0747370
2320.57, 0.0749620
