Database of Origin, USGS Spectral Database
Sample Description, See USGS database for additional info
Date Added,2016-08-10 05:26:33.088449

Data ID,USGS_pro03          
Sample ID, prochlorite_smr14.18292
Mineral Name, prochlorite
Material Class,Phyllosilicate

Wavelength
1369.66, 0.141162
1370.02, 0.141342
1370.38, 0.140982
1370.74, 0.141162
1371.11, 0.141432
1371.47, 0.141522
1371.83, 0.142062
1372.19, 0.141702
1372.56, 0.141702
1372.92, 0.141882
1373.29, 0.141882
1373.65, 0.141432
1374.01, 0.141252
1374.38, 0.140802
1374.74, 0.140802
1375.11, 0.141522
1375.47, 0.142243
1375.84, 0.142152
1376.2, 0.141522
1376.57, 0.141522
1376.93, 0.141882
1377.3, 0.142243
1377.67, 0.142062
1378.03, 0.141792
1378.4, 0.141792
1378.76, 0.141972
1379.13, 0.141882
1379.5, 0.141342
1379.87, 0.141162
1380.23, 0.141252
1380.6, 0.140802
1380.97, 0.141072
1381.34, 0.141702
1381.7, 0.141522
1382.07, 0.141612
1382.44, 0.141882
1382.81, 0.141162
1383.18, 0.140802
1383.55, 0.141072
1383.92, 0.141612
1384.29, 0.141882
1384.66, 0.142152
1385.03, 0.141342
1385.4, 0.140622
1385.77, 0.140892
1386.14, 0.140622
1386.51, 0.140712
1386.88, 0.140622
1387.25, 0.139812
1387.62, 0.139092
1387.99, 0.139002
1388.36, 0.138821
1388.74, 0.138281
1389.11, 0.138191
1389.48, 0.138011
1389.85, 0.137471
1390.23, 0.136751
1390.6, 0.136211
1390.97, 0.135851
1391.35, 0.136211
1391.72, 0.136391
1392.09, 0.135761
1392.47, 0.135310
1392.84, 0.135851
1393.21, 0.136301
1393.59, 0.136121
1393.96, 0.135130
1394.34, 0.135130
1394.71, 0.135941
1395.09, 0.135310
1395.46, 0.133960
1395.84, 0.133870
1396.22, 0.134140
1396.59, 0.134410
1396.97, 0.134590
1397.35, 0.134860
1397.72, 0.135040
1398.1, 0.134950
1398.48, 0.134770
1398.85, 0.134950
1399.23, 0.135761
1399.61, 0.135851
1399.99, 0.135220
1400.37, 0.134500
1400.74, 0.134680
1401.12, 0.134590
1401.5, 0.134410
1401.88, 0.134680
1402.26, 0.134680
1402.64, 0.134320
1403.02, 0.134500
1403.4, 0.134590
1403.78, 0.134500
1404.16, 0.134770
1404.54, 0.134590
1404.92, 0.134770
1405.3, 0.135040
1405.68, 0.134950
1406.06, 0.134770
1406.44, 0.134410
1406.83, 0.135310
1407.21, 0.135490
1407.59, 0.135040
1407.97, 0.135400
1408.35, 0.135581
1408.74, 0.135310
1409.12, 0.135490
1409.5, 0.135490
1409.89, 0.136031
1410.27, 0.135851
1410.65, 0.135310
1411.04, 0.135490
1411.42, 0.135671
1411.81, 0.135490
1412.19, 0.135581
1412.58, 0.135581
1412.96, 0.135671
1413.35, 0.135400
1413.73, 0.135761
1414.12, 0.135851
1414.5, 0.135761
1414.89, 0.135941
1415.28, 0.136211
1415.66, 0.136571
1416.05, 0.137111
1416.44, 0.137651
1416.82, 0.137471
1417.21, 0.137291
1417.6, 0.137291
1417.98, 0.137381
1418.37, 0.137741
1418.76, 0.137831
1419.15, 0.137291
1419.54, 0.137291
1419.93, 0.137651
1420.32, 0.138101
1420.71, 0.138371
1421.09, 0.138191
1421.48, 0.138011
1421.88, 0.138101
1422.27, 0.138281
1422.66, 0.138371
1423.05, 0.138281
1423.44, 0.138371
1423.83, 0.138551
1424.22, 0.138912
1424.61, 0.139182
1425.0, 0.139002
1425.39, 0.139182
1425.78, 0.138731
1426.18, 0.138281
1426.57, 0.138461
1426.96, 0.138371
1427.36, 0.138461
1427.75, 0.138821
1428.14, 0.139182
1428.54, 0.138731
1428.93, 0.138191
1429.32, 0.138191
1429.72, 0.138281
1430.11, 0.138641
1430.51, 0.138912
1430.9, 0.138731
1431.3, 0.138821
1431.69, 0.138912
1432.09, 0.139092
1432.48, 0.138912
1432.88, 0.138641
1433.28, 0.139092
1433.67, 0.138912
1434.07, 0.138641
1434.46, 0.138461
1434.86, 0.138281
1435.26, 0.138371
1435.66, 0.138371
1436.05, 0.138101
1436.45, 0.138281
1436.85, 0.138641
1437.25, 0.138912
1437.65, 0.138821
1438.05, 0.138551
1438.44, 0.138281
1438.84, 0.138371
1439.24, 0.138731
1439.64, 0.138731
1440.04, 0.139092
1440.44, 0.139092
1440.84, 0.138551
1441.24, 0.138281
1441.65, 0.138191
1442.05, 0.138281
1442.45, 0.138641
1442.85, 0.138821
1443.25, 0.138821
1443.65, 0.139002
1444.05, 0.139272
1444.46, 0.139092
1444.86, 0.139182
1445.26, 0.139182
1445.67, 0.139362
1446.07, 0.138821
1446.47, 0.138821
1446.88, 0.139272
1447.28, 0.139182
1447.68, 0.138641
1448.09, 0.138731
1448.49, 0.138912
1448.9, 0.138641
1449.3, 0.138731
1449.71, 0.139182
1450.11, 0.139002
1450.52, 0.139092
1450.93, 0.139092
1451.33, 0.139092
1451.74, 0.139272
1452.14, 0.139092
1452.55, 0.139092
1452.96, 0.139182
1453.36, 0.139632
1453.77, 0.140532
1454.18, 0.140262
1454.59, 0.139722
1455.0, 0.139722
1455.41, 0.139452
1455.81, 0.139452
1456.22, 0.139542
1456.63, 0.139362
1457.04, 0.139362
1457.45, 0.139722
1457.86, 0.140442
1458.27, 0.140802
1458.68, 0.141072
1459.09, 0.141072
1459.5, 0.140532
1459.91, 0.140442
1460.32, 0.140532
1460.74, 0.140622
1461.15, 0.141162
1461.56, 0.141702
1461.97, 0.141432
1462.39, 0.141162
1462.8, 0.141252
1463.21, 0.140802
1463.62, 0.140622
1464.04, 0.140892
1464.45, 0.141342
1464.86, 0.141522
1465.28, 0.141612
1465.69, 0.141882
1466.11, 0.141522
1466.52, 0.141162
1466.94, 0.140982
1467.35, 0.141432
1467.77, 0.141702
1468.18, 0.141522
1468.6, 0.141702
1469.02, 0.141792
1469.43, 0.141432
1469.85, 0.141522
1470.27, 0.142243
1470.68, 0.142693
1471.1, 0.142423
1471.52, 0.142423
1471.94, 0.142603
1472.35, 0.142513
1472.77, 0.142243
1473.19, 0.142243
1473.61, 0.142603
1474.03, 0.142783
1474.45, 0.142873
1474.87, 0.142873
1475.29, 0.142513
1475.71, 0.142513
1476.13, 0.143053
1476.55, 0.143233
1476.97, 0.142873
1477.39, 0.142783
1477.81, 0.142783
1478.23, 0.143053
1478.65, 0.143503
1479.07, 0.143593
1479.5, 0.143503
1479.92, 0.143413
1480.34, 0.143413
1480.76, 0.143323
1481.19, 0.144043
1481.61, 0.144223
1482.03, 0.143863
1482.46, 0.144313
1482.88, 0.144943
1483.31, 0.145123
1483.73, 0.144853
1484.16, 0.144133
1484.58, 0.144133
1485.01, 0.144763
1485.43, 0.144673
1485.86, 0.144313
1486.28, 0.144403
1486.71, 0.144763
1487.14, 0.145033
1487.56, 0.144853
1487.99, 0.144943
1488.42, 0.144943
1488.84, 0.145033
1489.27, 0.145123
1489.7, 0.145213
1490.13, 0.145393
1490.56, 0.145213
1490.98, 0.145033
1491.41, 0.145483
1491.84, 0.146204
1492.27, 0.146564
1492.7, 0.145664
1493.13, 0.145844
1493.56, 0.146204
1493.99, 0.145844
1494.42, 0.145844
1494.85, 0.146384
1495.29, 0.146474
1495.72, 0.146204
1496.15, 0.146384
1496.58, 0.147104
1497.01, 0.147194
1497.44, 0.147014
1497.88, 0.147194
1498.31, 0.147644
1498.74, 0.147824
1499.18, 0.147554
1499.61, 0.147194
1500.04, 0.147374
1500.48, 0.147194
1500.91, 0.147194
1501.35, 0.147464
1501.78, 0.147374
1502.22, 0.147104
1502.65, 0.147734
1503.09, 0.148184
1503.53, 0.147914
1503.96, 0.147554
1504.4, 0.147554
1504.83, 0.147284
1505.27, 0.147374
1505.71, 0.147914
1506.15, 0.148544
1506.58, 0.148454
1507.02, 0.148544
1507.46, 0.148995
1507.9, 0.148634
1508.34, 0.148454
1508.78, 0.148814
1509.21, 0.149085
1509.66, 0.148814
1510.09, 0.148094
1510.53, 0.147914
1510.97, 0.148724
1511.42, 0.149355
1511.86, 0.149355
1512.3, 0.149175
1512.74, 0.149175
1513.18, 0.149445
1513.62, 0.149445
1514.06, 0.149535
1514.51, 0.149625
1514.95, 0.149715
1515.39, 0.149625
1515.83, 0.149985
1516.28, 0.149895
1516.72, 0.149535
1517.16, 0.149265
1517.61, 0.149895
1518.05, 0.150075
1518.5, 0.150165
1518.94, 0.150345
1519.39, 0.150435
1519.83, 0.150435
1520.28, 0.150165
1520.73, 0.150435
1521.17, 0.150885
1521.62, 0.150705
1522.07, 0.150345
1522.51, 0.150435
1522.96, 0.150705
1523.41, 0.151155
1523.85, 0.151425
1524.3, 0.151065
1524.75, 0.150795
1525.2, 0.151065
1525.65, 0.151335
1526.1, 0.151245
1526.55, 0.150975
1527.0, 0.150705
1527.45, 0.151065
1527.9, 0.151605
1528.35, 0.151605
1528.8, 0.151875
1529.25, 0.152055
1529.7, 0.151965
1530.15, 0.151875
1530.6, 0.151605
1531.05, 0.151875
1531.51, 0.152235
1531.96, 0.152055
1532.41, 0.152235
1532.87, 0.152506
1533.32, 0.152416
1533.77, 0.152416
1534.23, 0.152596
1534.68, 0.152686
1535.14, 0.152956
1535.59, 0.153226
1536.05, 0.153136
1536.5, 0.153046
1536.96, 0.153136
1537.41, 0.153046
1537.87, 0.153316
1538.32, 0.153226
1538.78, 0.153406
1539.24, 0.153586
1539.7, 0.153766
1540.15, 0.153766
1540.61, 0.154216
1541.07, 0.154576
1541.53, 0.154666
1541.98, 0.154756
1542.44, 0.154486
1542.9, 0.154396
1543.36, 0.154576
1543.82, 0.154936
1544.28, 0.155116
1544.74, 0.154756
1545.2, 0.155206
1545.66, 0.155927
1546.12, 0.155837
1546.59, 0.155296
1547.05, 0.155657
1547.51, 0.155837
1547.97, 0.155747
1548.43, 0.155747
1548.9, 0.155747
1549.36, 0.156017
1549.82, 0.156287
1550.29, 0.156467
1550.75, 0.156557
1551.21, 0.156827
1551.68, 0.157007
1552.14, 0.156827
1552.61, 0.156737
1553.07, 0.156827
1553.54, 0.156917
1554.0, 0.157277
1554.47, 0.157547
1554.93, 0.157997
1555.4, 0.158267
1555.87, 0.158087
1556.34, 0.157997
1556.8, 0.158267
1557.27, 0.158537
1557.74, 0.158357
1558.21, 0.158447
1558.68, 0.158537
1559.14, 0.158357
1559.61, 0.158537
1560.08, 0.158807
1560.55, 0.158717
1561.02, 0.158627
1561.49, 0.158807
1561.96, 0.159078
1562.43, 0.159258
1562.9, 0.159708
1563.38, 0.159888
1563.85, 0.159798
1564.32, 0.159798
1564.79, 0.160068
1565.26, 0.160158
1565.74, 0.160068
1566.21, 0.160068
1566.68, 0.160248
1567.16, 0.159888
1567.63, 0.160158
1568.1, 0.160878
1568.58, 0.161058
1569.05, 0.161238
1569.53, 0.161508
1570.0, 0.161328
1570.48, 0.160698
1570.96, 0.160878
1571.43, 0.161148
1571.91, 0.161328
1572.39, 0.161598
1572.86, 0.161868
1573.34, 0.161778
1573.82, 0.162138
1574.3, 0.162589
1574.77, 0.162499
1575.25, 0.162228
1575.73, 0.162228
1576.21, 0.162048
1576.69, 0.162228
1577.17, 0.162409
1577.65, 0.162409
1578.13, 0.162679
1578.61, 0.162859
1579.09, 0.163039
1579.57, 0.163129
1580.05, 0.163489
1580.54, 0.164029
1581.02, 0.163759
1581.5, 0.163309
1581.98, 0.163579
1582.47, 0.163849
1582.95, 0.164029
1583.43, 0.164029
1583.92, 0.164299
1584.4, 0.164479
1584.88, 0.164479
1585.37, 0.164479
1585.85, 0.164389
1586.34, 0.164479
1586.82, 0.165199
1587.31, 0.165469
1587.8, 0.165199
1588.28, 0.165019
1588.77, 0.165469
1589.26, 0.165740
1589.74, 0.165650
1590.23, 0.165650
1590.72, 0.165830
1591.21, 0.166010
1591.7, 0.166370
1592.19, 0.166460
1592.67, 0.166370
1593.16, 0.166280
1593.65, 0.166010
1594.14, 0.166280
1594.63, 0.166730
1595.12, 0.167000
1595.61, 0.167270
1596.11, 0.167180
1596.6, 0.167090
1597.09, 0.167360
1597.58, 0.167540
1598.08, 0.167270
1598.57, 0.167000
1599.06, 0.167090
1599.55, 0.167360
1600.05, 0.167810
1600.54, 0.168080
1601.04, 0.168080
1601.53, 0.168350
1602.03, 0.168620
1602.52, 0.168710
1603.02, 0.169251
1603.51, 0.169341
1604.01, 0.169161
1604.5, 0.169161
1605.0, 0.169701
1605.5, 0.170241
1606.0, 0.170241
1606.49, 0.170331
1606.99, 0.170241
1607.49, 0.169971
1607.99, 0.170151
1608.49, 0.170241
1608.99, 0.170061
1609.49, 0.169881
1609.99, 0.170151
1610.49, 0.170601
1610.99, 0.170691
1611.49, 0.171141
1611.99, 0.171501
1612.49, 0.171321
1612.99, 0.171411
1613.49, 0.171411
1614.0, 0.171501
1614.5, 0.172041
1615.0, 0.172311
1615.51, 0.172402
1616.01, 0.172582
1616.51, 0.172582
1617.02, 0.172582
1617.52, 0.172582
1618.03, 0.173032
1618.53, 0.173032
1619.04, 0.172942
1619.54, 0.173302
1620.05, 0.173662
1620.55, 0.173482
1621.06, 0.173572
1621.57, 0.173662
1622.08, 0.173842
1622.58, 0.174202
1623.09, 0.174202
1623.6, 0.174202
1624.11, 0.174382
1624.62, 0.174922
1625.13, 0.175192
1625.64, 0.175192
1626.15, 0.175102
1626.66, 0.175462
1627.17, 0.175462
1627.68, 0.175192
1628.19, 0.175462
1628.7, 0.176183
1629.21, 0.176363
1629.72, 0.176273
1630.24, 0.176273
1630.75, 0.176453
1631.26, 0.176633
1631.78, 0.176453
1632.29, 0.176453
1632.8, 0.176813
1633.32, 0.177263
1633.83, 0.177263
1634.35, 0.176993
1634.86, 0.177173
1635.38, 0.177263
1635.9, 0.177443
1636.41, 0.177713
1636.93, 0.177983
1637.45, 0.177893
1637.96, 0.177983
1638.48, 0.178253
1639.0, 0.178343
1639.52, 0.178433
1640.04, 0.178343
1640.56, 0.178433
1641.08, 0.178613
1641.59, 0.178613
1642.11, 0.178703
1642.63, 0.179154
1643.16, 0.179514
1643.68, 0.179424
1644.2, 0.179334
1644.72, 0.179063
1645.24, 0.179244
1645.76, 0.179244
1646.29, 0.179424
1646.81, 0.179874
1647.33, 0.179964
1647.86, 0.179874
1648.38, 0.180144
1648.9, 0.180504
1649.43, 0.180504
1649.95, 0.180414
1650.48, 0.180594
1651.0, 0.180504
1651.53, 0.180864
1652.06, 0.181314
1652.58, 0.180954
1653.11, 0.180504
1653.64, 0.180954
1654.17, 0.181674
1654.69, 0.181674
1655.22, 0.181044
1655.75, 0.180954
1656.28, 0.181584
1656.81, 0.182034
1657.34, 0.182034
1657.87, 0.182124
1658.4, 0.182124
1658.93, 0.181854
1659.46, 0.181674
1659.99, 0.181944
1660.52, 0.182485
1661.05, 0.182935
1661.59, 0.183115
1662.12, 0.183205
1662.65, 0.183295
1663.19, 0.183565
1663.72, 0.183385
1664.26, 0.183115
1664.79, 0.183295
1665.32, 0.183205
1665.86, 0.183295
1666.39, 0.183565
1666.93, 0.183565
1667.47, 0.183475
1668.0, 0.183925
1668.54, 0.184465
1669.08, 0.184195
1669.61, 0.184015
1670.15, 0.184195
1670.69, 0.184465
1671.23, 0.184735
1671.77, 0.184915
1672.31, 0.185005
1672.85, 0.185365
1673.39, 0.185635
1673.93, 0.185545
1674.47, 0.185545
1675.01, 0.185726
1675.55, 0.185996
1676.09, 0.185906
1676.64, 0.185906
1677.18, 0.186176
1677.72, 0.186176
1678.26, 0.186356
1678.81, 0.186806
1679.35, 0.186806
1679.89, 0.186626
1680.44, 0.186986
1680.98, 0.187346
1681.53, 0.187346
1682.07, 0.187436
1682.62, 0.187706
1683.17, 0.188156
1683.71, 0.188246
1684.26, 0.188066
1684.81, 0.188066
1685.36, 0.188516
1685.9, 0.188696
1686.45, 0.188606
1687.0, 0.188606
1687.55, 0.189057
1688.1, 0.189147
1688.65, 0.189417
1689.2, 0.189507
1689.75, 0.189327
1690.3, 0.189417
1690.85, 0.189237
1691.41, 0.189147
1691.96, 0.189687
1692.51, 0.189687
1693.06, 0.189237
1693.61, 0.189507
1694.17, 0.189777
1694.72, 0.190137
1695.28, 0.190317
1695.83, 0.190407
1696.39, 0.190677
1696.94, 0.190677
1697.5, 0.190677
1698.05, 0.191217
1698.61, 0.191397
1699.17, 0.191307
1699.72, 0.190947
1700.28, 0.190857
1700.84, 0.191487
1701.4, 0.191667
1701.95, 0.191757
1702.51, 0.191937
1703.07, 0.191847
1703.63, 0.191757
1704.19, 0.191937
1704.75, 0.192117
1705.31, 0.192478
1705.88, 0.192568
1706.44, 0.192748
1707.0, 0.192838
1707.56, 0.192748
1708.12, 0.192838
1708.69, 0.192928
1709.25, 0.193108
1709.81, 0.193288
1710.38, 0.193288
1710.94, 0.193288
1711.51, 0.193468
1712.07, 0.193648
1712.64, 0.193468
1713.2, 0.193378
1713.77, 0.193558
1714.34, 0.193828
1714.9, 0.194098
1715.47, 0.194008
1716.04, 0.193918
1716.61, 0.194368
1717.18, 0.194548
1717.74, 0.194458
1718.31, 0.194638
1718.88, 0.194908
1719.45, 0.194998
1720.02, 0.195268
1720.59, 0.195268
1721.17, 0.194998
1721.74, 0.195268
1722.31, 0.195448
1722.88, 0.195448
1723.45, 0.195448
1724.03, 0.195448
1724.6, 0.195448
1725.18, 0.195538
1725.75, 0.195809
1726.33, 0.195718
1726.9, 0.195809
1727.48, 0.196169
1728.05, 0.196349
1728.63, 0.196259
1729.2, 0.196079
1729.78, 0.196079
1730.36, 0.196079
1730.94, 0.196169
1731.51, 0.196529
1732.09, 0.196889
1732.67, 0.197429
1733.25, 0.197429
1733.83, 0.197069
1734.41, 0.196799
1734.99, 0.197069
1735.57, 0.197429
1736.15, 0.197429
1736.73, 0.197699
1737.32, 0.198059
1737.9, 0.197969
1738.48, 0.197969
1739.07, 0.198059
1739.65, 0.198329
1740.23, 0.198509
1740.82, 0.198419
1741.4, 0.198599
1741.99, 0.198959
1742.57, 0.198959
1743.16, 0.198869
1743.74, 0.198959
1744.33, 0.198959
1744.92, 0.198959
1745.51, 0.199500
1746.09, 0.199770
1746.68, 0.199770
1747.27, 0.199590
1747.86, 0.199410
1748.45, 0.199950
1749.04, 0.200400
1749.63, 0.200310
1750.22, 0.200310
1750.81, 0.200310
1751.4, 0.200130
1751.99, 0.200130
1752.59, 0.200310
1753.18, 0.200580
1753.77, 0.200850
1754.37, 0.200850
1754.96, 0.201030
1755.56, 0.201210
1756.15, 0.201120
1756.74, 0.201390
1757.34, 0.201750
1757.94, 0.201570
1758.53, 0.201390
1759.13, 0.201390
1759.73, 0.201390
1760.32, 0.201570
1760.92, 0.201930
1761.52, 0.202200
1762.12, 0.202380
1762.72, 0.202380
1763.32, 0.202380
1763.92, 0.202741
1764.52, 0.203011
1765.12, 0.202741
1765.72, 0.202741
1766.32, 0.203011
1766.92, 0.203101
1767.53, 0.203191
1768.13, 0.203371
1768.73, 0.203461
1769.34, 0.203461
1769.94, 0.203731
1770.55, 0.203731
1771.15, 0.203551
1771.76, 0.203461
1772.36, 0.203461
1772.97, 0.203551
1773.57, 0.203641
1774.18, 0.204001
1774.79, 0.204001
1775.4, 0.203911
1776.0, 0.204541
1776.61, 0.204721
1777.22, 0.204721
1777.83, 0.204901
1778.44, 0.205081
1779.05, 0.204811
1779.66, 0.204631
1780.27, 0.204901
1780.88, 0.205261
1781.5, 0.205351
1782.11, 0.205351
1782.72, 0.205351
1783.33, 0.205621
1783.95, 0.205711
1784.56, 0.205802
1785.18, 0.205892
1785.79, 0.205892
1786.41, 0.205802
1787.02, 0.205892
1787.64, 0.205711
1788.26, 0.205711
1788.87, 0.206162
1789.49, 0.206342
1790.11, 0.206342
1790.73, 0.206432
1791.35, 0.206792
1791.96, 0.206702
1792.58, 0.206522
1793.21, 0.206612
1793.83, 0.206702
1794.45, 0.206702
1795.07, 0.206882
1795.69, 0.206882
1796.31, 0.206882
1796.93, 0.207242
1797.56, 0.207242
1798.18, 0.207062
1798.8, 0.207242
1799.43, 0.207332
1800.05, 0.207332
1800.68, 0.207332
1801.3, 0.207332
1801.93, 0.207512
1802.56, 0.207422
1803.18, 0.207692
1803.81, 0.207872
1804.44, 0.207872
1805.07, 0.207872
1805.7, 0.207962
1806.33, 0.207872
1806.95, 0.207782
1807.58, 0.208052
1808.22, 0.208232
1808.85, 0.208232
1809.48, 0.208322
1810.11, 0.208322
1810.74, 0.208772
1811.38, 0.209042
1812.01, 0.208952
1812.64, 0.208952
1813.28, 0.208862
1813.91, 0.208772
1814.55, 0.209042
1815.18, 0.208952
1815.82, 0.209042
1816.45, 0.208862
1817.09, 0.209042
1817.73, 0.209132
1818.36, 0.209313
1819.0, 0.209673
1819.64, 0.209763
1820.28, 0.209673
1820.92, 0.209763
1821.56, 0.209763
1822.2, 0.209493
1822.84, 0.209673
1823.48, 0.209853
1824.12, 0.210123
1824.76, 0.210123
1825.41, 0.210213
1826.05, 0.210483
1826.69, 0.210663
1827.34, 0.210573
1827.98, 0.210663
1828.63, 0.210843
1829.27, 0.210843
1829.92, 0.210933
1830.56, 0.211023
1831.21, 0.211023
1831.86, 0.210843
1832.5, 0.210933
1833.15, 0.210843
1833.8, 0.210843
1834.45, 0.211113
1835.1, 0.211293
1835.75, 0.211383
1836.4, 0.211653
1837.05, 0.211833
1837.7, 0.211833
1838.35, 0.211563
1839.01, 0.211743
1839.66, 0.211833
1840.31, 0.211653
1840.96, 0.211923
1841.62, 0.212463
1842.27, 0.212283
1842.93, 0.211923
1843.58, 0.212103
1844.24, 0.212463
1844.9, 0.212283
1845.55, 0.212373
1846.21, 0.212463
1846.87, 0.212824
1847.53, 0.212824
1848.18, 0.212734
1848.84, 0.212644
1849.5, 0.212824
1850.16, 0.212914
1850.82, 0.212914
1851.48, 0.212644
1852.14, 0.212644
1852.81, 0.212914
1853.47, 0.213094
1854.13, 0.213094
1854.8, 0.213004
1855.46, 0.213004
1856.12, 0.213274
1856.79, 0.213364
1857.45, 0.213094
1858.12, 0.213004
1858.79, 0.213004
1859.45, 0.213184
1860.12, 0.213544
1860.79, 0.213454
1861.46, 0.213184
1862.12, 0.213094
1862.79, 0.213274
1863.46, 0.213274
1864.13, 0.213544
1864.8, 0.213544
1865.48, 0.213634
1866.15, 0.213724
1866.82, 0.214084
1867.49, 0.214174
1868.16, 0.213904
1868.84, 0.213904
1869.51, 0.213454
1870.19, 0.213544
1870.86, 0.213904
1871.54, 0.213814
1872.21, 0.213994
1872.89, 0.214174
1873.56, 0.214084
1874.24, 0.213904
1874.92, 0.214084
1875.6, 0.213994
1876.28, 0.214084
1876.96, 0.214264
1877.64, 0.214264
1878.32, 0.214354
1879.0, 0.214264
1879.68, 0.214084
1880.36, 0.214084
1881.04, 0.213904
1881.73, 0.213994
1882.41, 0.214174
1883.09, 0.214354
1883.78, 0.214624
1884.46, 0.214534
1885.15, 0.214624
1885.83, 0.214714
1886.52, 0.214984
1887.21, 0.215074
1887.89, 0.214984
1888.58, 0.214984
1889.27, 0.214984
1889.96, 0.215344
