Database of Origin, USGS Spectral Database
Sample Description, See USGS database for additional info
Date Added,2016-08-10 05:28:34.695292

Data ID,USGS_pyr08          
Sample ID, pyrite_s30.18641
Mineral Name, pyrite
Material Class,Sulfide

Wavelength
248.1, 0.0224840
253.6, 0.0241390
258.6, 0.0252930
263.6, 0.0298950
268.6, 0.0304050
273.1, 0.0273660
277.1, 0.0317300
281.1, 0.0276790
285.1, 0.0303770
289.1, 0.0301280
293.1, 0.0314440
297.1, 0.0303520
301.1, 0.0312330
305.1, 0.0336970
309.1, 0.0340770
313.1, 0.0352590
317.1, 0.0344140
321.1, 0.0351170
325.1, 0.0367820
329.1, 0.0381340
333.1, 0.0374870
337.1, 0.0382960
341.1, 0.0401150
345.1, 0.0412050
349.1, 0.0405360
353.1, 0.0432650
357.1, 0.0438010
360.6, 0.0437470
363.6, 0.0437040
366.6, 0.0436100
369.6, 0.0441770
372.6, 0.0438620
375.6, 0.0440540
378.6, 0.0439760
381.1, 0.0440920
383.1, 0.0438310
385.1, 0.0437550
387.1, 0.0435940
389.1, 0.0441070
391.1, 0.0446830
393.1, 0.0438180
395.1, 0.0445140
397.1, 0.0440760
399.1, 0.0440750
401.1, 0.0447320
403.1, 0.0438670
405.1, 0.0444780
407.1, 0.0448210
409.1, 0.0454000
411.1, 0.0449520
412.8, 0.0455570
415.8, 0.0457660
418.8, 0.0453000
421.8, 0.0454200
424.8, 0.0455890
427.8, 0.0458830
430.8, 0.0462040
433.8, 0.0471640
436.8, 0.0470860
439.8, 0.0475000
442.8, 0.0470110
445.8, 0.0484320
448.8, 0.0477810
451.3, 0.0480260
453.3, 0.0476430
455.3, 0.0486250
457.3, 0.0486310
459.3, 0.0489580
461.3, 0.0501640
463.3, 0.0505090
465.3, 0.0500040
467.3, 0.0502090
469.3, 0.0511220
471.3, 0.0508880
473.3, 0.0520040
475.3, 0.0521410
477.3, 0.0522990
479.3, 0.0528130
481.3, 0.0525040
483.3, 0.0533920
485.3, 0.0526750
487.3, 0.0536040
489.3, 0.0546990
491.3, 0.0547460
493.3, 0.0546380
495.3, 0.0541190
497.3, 0.0550240
499.3, 0.0547270
501.3, 0.0551550
503.3, 0.0555460
505.3, 0.0564500
507.3, 0.0567730
509.3, 0.0561110
511.3, 0.0561360
513.3, 0.0555900
515.3, 0.0567230
517.3, 0.0576030
519.3, 0.0563690
521.3, 0.0572750
523.3, 0.0575080
525.3, 0.0574690
527.3, 0.0574750
529.3, 0.0565000
531.3, 0.0579790
533.3, 0.0571590
535.3, 0.0581530
537.3, 0.0574490
539.3, 0.0577480
541.3, 0.0577890
543.3, 0.0579380
545.3, 0.0584690
547.3, 0.0591860
549.3, 0.0586620
551.3, 0.0587940
553.3, 0.0591170
555.3, 0.0585750
557.3, 0.0590440
559.3, 0.0589480
561.3, 0.0592100
563.3, 0.0593460
565.3, 0.0586360
567.3, 0.0594590
569.3, 0.0594530
571.3, 0.0596600
573.3, 0.0603400
575.3, 0.0594300
577.3, 0.0605080
579.3, 0.0598310
581.3, 0.0588670
583.3, 0.0591260
585.3, 0.0609760
587.3, 0.0594690
589.3, 0.0611390
591.3, 0.0596780
593.3, 0.0609430
595.3, 0.0600660
597.3, 0.0604990
599.3, 0.0609080
601.1, 0.0597760
602.7, 0.0613110
604.3, 0.0595350
605.9, 0.0603880
607.5, 0.0598500
609.1, 0.0603960
610.7, 0.0606600
612.3, 0.0601720
613.9, 0.0599300
615.5, 0.0597600
617.1, 0.0602540
618.7, 0.0608790
620.3, 0.0611130
621.9, 0.0606230
623.5, 0.0612130
625.1, 0.0606290
626.7, 0.0602070
628.3, 0.0606640
629.9, 0.0599490
631.7, 0.0607580
633.7, 0.0604210
635.7, 0.0608380
637.7, 0.0607920
639.7, 0.0616910
641.7, 0.0606680
643.7, 0.0612690
645.7, 0.0604090
647.7, 0.0612340
649.7, 0.0613040
651.7, 0.0611060
653.7, 0.0615550
655.7, 0.0614310
657.7, 0.0619770
659.7, 0.0618360
661.7, 0.0619700
663.7, 0.0622900
665.7, 0.0624840
667.7, 0.0621630
670.2, 0.0621900
673.2, 0.0620600
676.2, 0.0625370
679.2, 0.0626690
682.2, 0.0633270
685.2, 0.0636630
688.2, 0.0625840
691.2, 0.0625600
694.2, 0.0633360
697.2, 0.0636770
700.2, 0.0628060
702.0, 0.0640690
704.0, 0.0629360
706.0, 0.0630950
708.0, 0.0633330
710.0, 0.0638830
712.0, 0.0636150
714.0, 0.0641540
716.0, 0.0641700
718.0, 0.0636610
720.0, 0.0636400
722.0, 0.0636590
724.0, 0.0637540
726.0, 0.0638570
728.0, 0.0640720
730.0, 0.0634620
732.0, 0.0637830
734.0, 0.0635780
736.0, 0.0640070
738.0, 0.0641900
740.0, 0.0631280
742.0, 0.0632610
744.0, 0.0637500
746.0, 0.0635750
748.0, 0.0632500
750.5, 0.0634490
753.5, 0.0634210
756.5, 0.0631660
759.5, 0.0629700
762.5, 0.0636760
765.5, 0.0630210
768.5, 0.0632550
771.5, 0.0627760
774.5, 0.0628620
777.5, 0.0625530
781.0, 0.0626750
785.0, 0.0627710
789.0, 0.0623190
793.0, 0.0622800
797.0, 0.0626730
801.5, 0.0619380
806.5, 0.0628520
811.5, 0.0616120
816.5, 0.0619780
822.0, 0.0613690
828.0, 0.0613720
835.0, 0.0610150
843.0, 0.0627600
851.0, 0.0637310
859.0, 0.0609220
871.0, 0.0598260
883.0, 0.0600690
894.0, 0.0633190
904.0, 0.0611890
914.0, 0.0606630
924.0, 0.0628100
933.0, 0.0596820
941.0, 0.0598130
949.0, 0.0584980
957.0, 0.0606060
964.0, 0.0608480
970.0, 0.0607990
976.0, 0.0608910
982.0, 0.0608990
988.0, 0.0619240
994.0, 0.0619770
1000.0, 0.0599110
1006.0, 0.0619870
1012.0, 0.0603990
1018.0, 0.0624630
1023.5, 0.0617430
1028.5, 0.0655410
1033.5, 0.0627390
1038.5, 0.0641660
1043.5, 0.0649120
1048.5, 0.0647570
1053.5, 0.0657820
1058.5, 0.0647490
1063.5, 0.0662150
1068.5, 0.0657220
1073.5, 0.0642120
1078.5, 0.0659770
1083.5, 0.0647030
1088.5, 0.0677090
1093.5, 0.0692970
1098.5, 0.0687460
1103.5, 0.0689080
1108.5, 0.0685090
1113.5, 0.0691490
1118.5, 0.0707720
1123.5, 0.0704730
1128.5, 0.0714260
1133.5, 0.0717300
1138.5, 0.0722300
1143.5, 0.0735980
1148.5, 0.0744470
1153.5, 0.0744380
1158.5, 0.0748180
1163.5, 0.0752150
1168.5, 0.0747370
1173.5, 0.0765730
1178.5, 0.0771500
1183.5, 0.0790190
1188.5, 0.0819160
1193.5, 0.0815330
1198.5, 0.0806080
1203.5, 0.0819340
1208.5, 0.0830630
1213.5, 0.0843000
1218.5, 0.0841280
1223.5, 0.0851480
1228.5, 0.0868970
1233.5, 0.0848910
1238.5, 0.0881700
1243.5, 0.0889040
1248.5, 0.0880930
1253.5, 0.0905870
1258.5, 0.0914460
1263.5, 0.0921790
1268.5, 0.0923510
1273.5, 0.0919400
1278.5, 0.0934330
1283.5, 0.0955310
1288.5, 0.0952760
1293.5, 0.0975500
1298.5, 0.0971980
1303.5, 0.0998140
1308.5, 0.0993180
1313.5, 0.101138
1318.5, 0.100895
1323.5, 0.101473
1328.5, 0.103268
1333.5, 0.102458
1338.5, 0.105692
1343.5, 0.104526
1348.5, 0.105983
1353.5, 0.104898
1358.5, 0.107885
1363.5, 0.107503
1368.5, 0.107726
1373.5, 0.109313
1378.5, 0.113253
1383.5, 0.112016
1388.5, 0.112332
1393.5, 0.113135
1398.5, 0.113903
1403.5, 0.114631
1408.5, 0.115508
1413.5, 0.118376
1418.5, 0.116011
1423.5, 0.118544
1428.5, 0.117956
1433.5, 0.119051
1438.5, 0.121521
1443.5, 0.121920
1448.5, 0.121920
1453.5, 0.125272
1458.5, 0.124312
1463.5, 0.124441
1468.5, 0.125684
1473.5, 0.128057
1478.5, 0.126165
1483.5, 0.128529
1488.5, 0.126803
1493.5, 0.127589
1498.5, 0.130483
1503.5, 0.131106
1508.5, 0.128523
1513.5, 0.130314
1518.5, 0.127478
1523.5, 0.131980
1528.5, 0.131437
1534.0, 0.131101
1540.0, 0.132520
1546.0, 0.132880
1552.0, 0.134515
1558.0, 0.134685
1564.0, 0.135966
1570.5, 0.135147
1577.5, 0.135397
1584.5, 0.136196
1591.5, 0.135642
1598.5, 0.137182
1605.5, 0.137088
1612.5, 0.136450
1619.5, 0.136639
1626.5, 0.137213
1633.5, 0.137524
1640.5, 0.137340
1647.5, 0.138319
1654.5, 0.139207
1661.5, 0.138433
1668.5, 0.138346
1676.0, 0.137056
1684.0, 0.137691
1692.0, 0.140238
1700.0, 0.138211
1708.0, 0.135773
1716.0, 0.139165
1724.0, 0.140278
1732.0, 0.139262
1740.0, 0.141319
1748.0, 0.139874
1756.0, 0.142142
1764.0, 0.139050
1772.0, 0.141737
1780.0, 0.139730
1788.0, 0.141021
1796.0, 0.138759
1805.0, 0.139859
1815.0, 0.140991
1825.0, 0.141078
1835.0, 0.142913
1845.0, 0.140679
1855.0, 0.142627
1865.0, 0.141160
1875.0, 0.142674
1885.0, 0.141670
1895.0, 0.141127
1905.0, 0.141879
1915.0, 0.142100
1925.0, 0.140141
1935.0, 0.141793
1945.0, 0.139558
1955.0, 0.139549
1965.0, 0.140001
1975.0, 0.138857
1985.0, 0.140298
1995.0, 0.140095
2005.0, 0.139722
2015.0, 0.140429
2025.0, 0.140607
2035.0, 0.142887
2045.0, 0.140685
2055.0, 0.141781
2065.0, 0.138501
2075.0, 0.142111
2085.0, 0.140977
2095.0, 0.143833
2105.0, 0.143791
2115.0, 0.141360
2125.0, 0.142902
2135.0, 0.145173
2145.0, 0.148141
2155.0, 0.143517
2165.0, 0.142527
2175.0, 0.144232
2185.0, 0.144195
2195.0, 0.144483
2205.0, 0.141919
2215.0, 0.139811
2225.0, 0.143315
2235.0, 0.143579
2245.0, 0.146205
2255.0, 0.145368
2265.0, 0.143380
2275.0, 0.143766
2285.0, 0.147462
2295.0, 0.140290
2305.0, 0.145815
2315.0, 0.145913
2325.0, 0.144451
2335.0, 0.149259
2345.0, 0.147473
2355.0, 0.142973
2365.0, 0.145480
2375.0, 0.149050
2386.0, 0.148793
2400.0, 0.145216
2418.0, 0.147569
2440.0, 0.145402
2466.0, 0.144808
2496.0, 0.146606
2528.0, 0.144537
2560.0, 0.146711
2592.0, 0.145015
2624.0, 0.145747
2656.0, 0.146397
2688.0, 0.145790
2720.0, 0.147076
2752.0, 0.131772
2784.0, 0.128843
2816.0, 0.129800
2848.0, 0.111641
2880.0, 0.103996
2912.0, 0.0956740
2944.0, 0.0835680
2976.0, 0.0778890
