Database of Origin, USGS Spectral Database
Sample Description, See USGS database for additional info
Date Added,2016-08-10 05:17:28.308681

Data ID,USGS_non06          
Sample ID, nontronite_swa1.16123
Mineral Name, nontronite
Material Class,Phyllosilicate

Wavelength
1379.5, 0.470480
1379.87, 0.469633
1380.23, 0.468410
1380.6, 0.467374
1380.97, 0.467657
1381.34, 0.467516
1381.7, 0.466998
1382.07, 0.465304
1382.44, 0.463846
1382.81, 0.463799
1383.18, 0.463705
1383.55, 0.463046
1383.92, 0.462529
1384.29, 0.461823
1384.66, 0.460647
1385.03, 0.459329
1385.4, 0.458247
1385.77, 0.457071
1386.14, 0.456412
1386.51, 0.455707
1386.88, 0.454672
1387.25, 0.453119
1387.62, 0.451802
1387.99, 0.451049
1388.36, 0.450249
1388.74, 0.449402
1389.11, 0.448132
1389.48, 0.446767
1389.85, 0.445403
1390.23, 0.444227
1390.6, 0.443004
1390.97, 0.441545
1391.35, 0.440134
1391.72, 0.438158
1392.09, 0.435899
1392.47, 0.434488
1392.84, 0.433641
1393.21, 0.432230
1393.59, 0.430771
1393.96, 0.429407
1394.34, 0.427337
1394.71, 0.424890
1395.09, 0.423196
1395.46, 0.421879
1395.84, 0.420138
1396.22, 0.418021
1396.59, 0.416139
1396.97, 0.414869
1397.35, 0.413505
1397.72, 0.411905
1398.1, 0.410117
1398.48, 0.408423
1398.85, 0.406400
1399.23, 0.404377
1399.61, 0.402825
1399.99, 0.401319
1400.37, 0.399625
1400.74, 0.398026
1401.12, 0.396191
1401.5, 0.394544
1401.88, 0.393415
1402.26, 0.392004
1402.64, 0.390404
1403.02, 0.388946
1403.4, 0.387628
1403.78, 0.386264
1404.16, 0.384664
1404.54, 0.382735
1404.92, 0.381418
1405.3, 0.380524
1405.68, 0.379395
1406.06, 0.377889
1406.44, 0.376337
1406.83, 0.375255
1407.21, 0.374078
1407.59, 0.373137
1407.97, 0.372338
1408.35, 0.371303
1408.74, 0.369750
1409.12, 0.368903
1409.5, 0.368197
1409.89, 0.367680
1410.27, 0.366974
1410.65, 0.366315
1411.04, 0.365986
1411.42, 0.365563
1411.81, 0.364528
1412.19, 0.363728
1412.58, 0.363257
1412.96, 0.362881
1413.35, 0.362693
1413.73, 0.362034
1414.12, 0.361422
1414.5, 0.360999
1414.89, 0.360999
1415.28, 0.360999
1415.66, 0.360764
1416.05, 0.360529
1416.44, 0.360340
1416.82, 0.360152
1417.21, 0.360246
1417.6, 0.360199
1417.98, 0.360152
1418.37, 0.360011
1418.76, 0.359588
1419.15, 0.359776
1419.54, 0.360199
1419.93, 0.360293
1420.32, 0.359964
1420.71, 0.360058
1421.09, 0.360576
1421.48, 0.360811
1421.88, 0.360858
1422.27, 0.361187
1422.66, 0.361140
1423.05, 0.361140
1423.44, 0.361564
1423.83, 0.361705
1424.22, 0.361752
1424.61, 0.361799
1425.0, 0.362269
1425.39, 0.362505
1425.78, 0.362693
1426.18, 0.363069
1426.57, 0.363304
1426.96, 0.363540
1427.36, 0.363869
1427.75, 0.364528
1428.14, 0.364904
1428.54, 0.365092
1428.93, 0.365469
1429.32, 0.365892
1429.72, 0.365751
1430.11, 0.366033
1430.51, 0.366315
1430.9, 0.366833
1431.3, 0.367162
1431.69, 0.367303
1432.09, 0.367821
1432.48, 0.368386
1432.88, 0.368715
1433.28, 0.368997
1433.67, 0.369138
1434.07, 0.369515
1434.46, 0.370220
1434.86, 0.371067
1435.26, 0.371914
1435.66, 0.372667
1436.05, 0.373373
1436.45, 0.373890
1436.85, 0.374267
1437.25, 0.375302
1437.65, 0.376337
1438.05, 0.377466
1438.44, 0.378501
1438.84, 0.379583
1439.24, 0.380430
1439.64, 0.381559
1440.04, 0.383206
1440.44, 0.384570
1440.84, 0.385605
1441.24, 0.386781
1441.65, 0.388146
1442.05, 0.389463
1442.45, 0.390639
1442.85, 0.392145
1443.25, 0.393133
1443.65, 0.393980
1444.05, 0.395391
1444.46, 0.396473
1444.86, 0.397414
1445.26, 0.398214
1445.67, 0.398967
1446.07, 0.400002
1446.47, 0.401225
1446.88, 0.402401
1447.28, 0.403295
1447.68, 0.404048
1448.09, 0.404895
1448.49, 0.405695
1448.9, 0.406447
1449.3, 0.407482
1449.71, 0.408470
1450.11, 0.409506
1450.52, 0.410305
1450.93, 0.410917
1451.33, 0.411387
1451.74, 0.411952
1452.14, 0.412564
1452.55, 0.413269
1452.96, 0.413975
1453.36, 0.414351
1453.77, 0.414540
1454.18, 0.414775
1454.59, 0.415104
1455.0, 0.415434
1455.41, 0.415904
1455.81, 0.416327
1456.22, 0.416798
1456.63, 0.416563
1457.04, 0.416563
1457.45, 0.416939
1457.86, 0.416704
1458.27, 0.416516
1458.68, 0.416845
1459.09, 0.417127
1459.5, 0.416892
1459.91, 0.416845
1460.32, 0.416798
1460.74, 0.416939
1461.15, 0.416892
1461.56, 0.416798
1461.97, 0.416845
1462.39, 0.416986
1462.8, 0.417033
1463.21, 0.416939
1463.62, 0.416845
1464.04, 0.416892
1464.45, 0.416939
1464.86, 0.417221
1465.28, 0.417268
1465.69, 0.417221
1466.11, 0.417033
1466.52, 0.417127
1466.94, 0.417362
1467.35, 0.417739
1467.77, 0.418021
1468.18, 0.418256
1468.6, 0.418256
1469.02, 0.418492
1469.43, 0.418821
1469.85, 0.419244
1470.27, 0.419856
1470.68, 0.420421
1471.1, 0.420656
1471.52, 0.420891
1471.94, 0.420985
1472.35, 0.421503
1472.77, 0.422020
1473.19, 0.422303
1473.61, 0.422491
1474.03, 0.422820
1474.45, 0.423244
1474.87, 0.423573
1475.29, 0.423996
1475.71, 0.424373
1476.13, 0.424796
1476.55, 0.425078
1476.97, 0.425361
1477.39, 0.426066
1477.81, 0.426443
1478.23, 0.426537
1478.65, 0.426913
1479.07, 0.427101
1479.5, 0.427337
1479.92, 0.427807
1480.34, 0.428278
1480.76, 0.428748
1481.19, 0.428936
1481.61, 0.429313
1482.03, 0.429689
1482.46, 0.429971
1482.88, 0.430395
1483.31, 0.430677
1483.73, 0.430912
1484.16, 0.431100
1484.58, 0.431383
1485.01, 0.431994
1485.43, 0.432324
1485.86, 0.432512
1486.28, 0.432606
1486.71, 0.432747
1487.14, 0.433077
1487.56, 0.433500
1487.99, 0.433688
1488.42, 0.433735
1488.84, 0.434065
1489.27, 0.434535
1489.7, 0.434911
1490.13, 0.435053
1490.56, 0.435382
1490.98, 0.435570
1491.41, 0.435758
1491.84, 0.435946
1492.27, 0.436041
1492.7, 0.436323
1493.13, 0.436605
1493.56, 0.436793
1493.99, 0.437170
1494.42, 0.437264
1494.85, 0.437405
1495.29, 0.437593
1495.72, 0.437781
1496.15, 0.438111
1496.58, 0.438205
1497.01, 0.438252
1497.44, 0.438487
1497.88, 0.438675
1498.31, 0.438910
1498.74, 0.439334
1499.18, 0.439569
1499.61, 0.439851
1500.04, 0.439993
1500.48, 0.439945
1500.91, 0.440275
1501.35, 0.440463
1501.78, 0.440604
1502.22, 0.440651
1502.65, 0.441028
1503.09, 0.441310
1503.53, 0.441451
1503.96, 0.441545
1504.4, 0.441922
1504.83, 0.442392
1505.27, 0.442439
1505.71, 0.442298
1506.15, 0.442345
1506.58, 0.442627
1507.02, 0.442910
1507.46, 0.443145
1507.9, 0.442957
1508.34, 0.442910
1508.78, 0.443192
1509.21, 0.443286
1509.66, 0.443286
1510.09, 0.443521
1510.53, 0.444133
1510.97, 0.444368
1511.42, 0.444462
1511.86, 0.444415
1512.3, 0.444603
1512.74, 0.444838
1513.18, 0.444980
1513.62, 0.445027
1514.06, 0.445074
1514.51, 0.445168
1514.95, 0.445309
1515.39, 0.445591
1515.83, 0.445732
1516.28, 0.445779
1516.72, 0.445921
1517.16, 0.446250
1517.61, 0.446532
1518.05, 0.446673
1518.5, 0.446720
1518.94, 0.446673
1519.39, 0.446815
1519.83, 0.447050
1520.28, 0.447379
1520.73, 0.447520
1521.17, 0.447473
1521.62, 0.447708
1522.07, 0.447803
1522.51, 0.447803
1522.96, 0.447897
1523.41, 0.448273
1523.85, 0.448414
1524.3, 0.448320
1524.75, 0.448367
1525.2, 0.448508
1525.65, 0.448885
1526.1, 0.449214
1526.55, 0.449073
1527.0, 0.448979
1527.45, 0.449214
1527.9, 0.449355
1528.35, 0.449402
1528.8, 0.449637
1529.25, 0.449779
1529.7, 0.450108
1530.15, 0.450343
1530.6, 0.450390
1531.05, 0.450202
1531.51, 0.450249
1531.96, 0.450531
1532.41, 0.450861
1532.87, 0.450955
1533.32, 0.451237
1533.77, 0.451284
1534.23, 0.451331
1534.68, 0.451472
1535.14, 0.451708
1535.59, 0.452178
1536.05, 0.452554
1536.5, 0.452507
1536.96, 0.452460
1537.41, 0.452601
1537.87, 0.452790
1538.32, 0.452696
1538.78, 0.452790
1539.24, 0.452931
1539.7, 0.453072
1540.15, 0.453260
1540.61, 0.453542
1541.07, 0.453731
1541.53, 0.453919
1541.98, 0.454107
1542.44, 0.454342
1542.9, 0.454530
1543.36, 0.454672
1543.82, 0.454766
1544.28, 0.454907
1544.74, 0.455001
1545.2, 0.455142
1545.66, 0.455377
1546.12, 0.455471
1546.59, 0.455612
1547.05, 0.455707
1547.51, 0.455754
1547.97, 0.456177
1548.43, 0.456506
1548.9, 0.456600
1549.36, 0.456742
1549.82, 0.456789
1550.29, 0.456883
1550.75, 0.456930
1551.21, 0.457118
1551.68, 0.457541
1552.14, 0.457683
1552.61, 0.457871
1553.07, 0.458059
1553.54, 0.458059
1554.0, 0.458106
1554.47, 0.458247
1554.93, 0.458388
1555.4, 0.458671
1555.87, 0.458906
1556.34, 0.458765
1556.8, 0.458765
1557.27, 0.458953
1557.74, 0.459376
1558.21, 0.459329
1558.68, 0.459517
1559.14, 0.459894
1559.61, 0.459894
1560.08, 0.459988
1560.55, 0.460129
1561.02, 0.460317
1561.49, 0.460647
1561.96, 0.460882
1562.43, 0.461211
1562.9, 0.461211
1563.38, 0.461211
1563.85, 0.461305
1564.32, 0.461352
1564.79, 0.461399
1565.26, 0.461635
1565.74, 0.461776
1566.21, 0.462058
1566.68, 0.462058
1567.16, 0.462199
1567.63, 0.462434
1568.1, 0.462481
1568.58, 0.462481
1569.05, 0.462576
1569.53, 0.462764
1570.0, 0.462999
1570.48, 0.463140
1570.96, 0.463422
1571.43, 0.463517
1571.91, 0.463611
1572.39, 0.463705
1572.86, 0.463893
1573.34, 0.464034
1573.82, 0.464081
1574.3, 0.464222
1574.77, 0.464128
1575.25, 0.464175
1575.73, 0.464505
1576.21, 0.464834
1576.69, 0.464740
1577.17, 0.464740
1577.65, 0.465069
1578.13, 0.465351
1578.61, 0.465445
1579.09, 0.465634
1579.57, 0.465728
1580.05, 0.465634
1580.54, 0.465540
1581.02, 0.465540
1581.5, 0.465728
1581.98, 0.465963
1582.47, 0.466151
1582.95, 0.466151
1583.43, 0.466151
1583.92, 0.466481
1584.4, 0.466669
1584.88, 0.466575
1585.37, 0.466716
1585.85, 0.466904
1586.34, 0.467045
1586.82, 0.467233
1587.31, 0.467327
1587.8, 0.467469
1588.28, 0.467516
1588.77, 0.467610
1589.26, 0.467657
1589.74, 0.467798
1590.23, 0.468033
1590.72, 0.468221
1591.21, 0.468221
1591.7, 0.468410
1592.19, 0.468551
1592.67, 0.468645
1593.16, 0.468598
1593.65, 0.468739
1594.14, 0.468927
1594.63, 0.469068
1595.12, 0.469492
1595.61, 0.469539
1596.11, 0.469586
1596.6, 0.469586
1597.09, 0.469539
1597.58, 0.469633
1598.08, 0.469915
1598.57, 0.470197
1599.06, 0.470244
1599.55, 0.470291
1600.05, 0.470668
1600.54, 0.471091
1601.04, 0.470997
1601.53, 0.470950
1602.03, 0.471232
1602.52, 0.471609
1603.02, 0.471656
1603.51, 0.471797
1604.01, 0.472032
1604.5, 0.471844
1605.0, 0.471891
1605.5, 0.472267
1606.0, 0.472550
1606.49, 0.472738
1606.99, 0.472738
1607.49, 0.472738
1607.99, 0.472926
1608.49, 0.473161
1608.99, 0.473255
1609.49, 0.473397
1609.99, 0.473679
1610.49, 0.473820
1610.99, 0.473679
1611.49, 0.473773
1611.99, 0.474149
1612.49, 0.474385
1612.99, 0.474432
1613.49, 0.474479
1614.0, 0.474620
1614.5, 0.474667
1615.0, 0.474902
1615.51, 0.475184
1616.01, 0.475137
1616.51, 0.475137
1617.02, 0.475467
1617.52, 0.475655
1618.03, 0.475749
1618.53, 0.476078
1619.04, 0.476078
1619.54, 0.476125
1620.05, 0.476314
1620.55, 0.476408
1621.06, 0.476549
1621.57, 0.476690
1622.08, 0.476925
1622.58, 0.477113
1623.09, 0.477255
1623.6, 0.477302
1624.11, 0.477160
1624.62, 0.477490
1625.13, 0.477866
1625.64, 0.477913
1626.15, 0.477960
1626.66, 0.478007
1627.17, 0.478007
1627.68, 0.478196
1628.19, 0.478525
1628.7, 0.478713
1629.21, 0.478760
1629.72, 0.478807
1630.24, 0.478807
1630.75, 0.478901
1631.26, 0.479089
1631.78, 0.479184
1632.29, 0.479325
1632.8, 0.479560
1633.32, 0.479701
1633.83, 0.480030
1634.35, 0.479936
1634.86, 0.479889
1635.38, 0.480030
1635.9, 0.480124
1636.41, 0.480360
1636.93, 0.480548
1637.45, 0.480454
1637.96, 0.480501
1638.48, 0.480642
1639.0, 0.480830
1639.52, 0.481065
1640.04, 0.481301
1640.56, 0.481160
1641.08, 0.481207
1641.59, 0.481348
1642.11, 0.481536
1642.63, 0.481536
1643.16, 0.481348
1643.68, 0.481630
1644.2, 0.481912
1644.72, 0.481959
1645.24, 0.482053
1645.76, 0.482195
1646.29, 0.482053
1646.81, 0.482148
1647.33, 0.482289
1647.86, 0.482336
1648.38, 0.482571
1648.9, 0.482571
1649.43, 0.482712
1649.95, 0.482947
1650.48, 0.483041
1651.0, 0.483041
1651.53, 0.483088
1652.06, 0.483136
1652.58, 0.483324
1653.11, 0.483465
1653.64, 0.483606
1654.17, 0.483747
1654.69, 0.483794
1655.22, 0.483935
1655.75, 0.483747
1656.28, 0.483606
1656.81, 0.483700
1657.34, 0.483935
1657.87, 0.484171
1658.4, 0.484218
1658.93, 0.484265
1659.46, 0.484547
1659.99, 0.484641
1660.52, 0.484688
1661.05, 0.484782
1661.59, 0.484829
1662.12, 0.484923
1662.65, 0.485112
1663.19, 0.485347
1663.72, 0.485535
1664.26, 0.485582
1664.79, 0.485535
1665.32, 0.485582
1665.86, 0.485770
1666.39, 0.485817
1666.93, 0.486052
1667.47, 0.486147
1668.0, 0.486241
1668.54, 0.486429
1669.08, 0.486570
1669.61, 0.486664
1670.15, 0.486805
1670.69, 0.486899
1671.23, 0.486852
1671.77, 0.486899
1672.31, 0.487182
1672.85, 0.487182
1673.39, 0.487182
1673.93, 0.487276
1674.47, 0.487558
1675.01, 0.487558
1675.55, 0.487699
1676.09, 0.487934
1676.64, 0.488076
1677.18, 0.488076
1677.72, 0.488311
1678.26, 0.488499
1678.81, 0.488499
1679.35, 0.488452
1679.89, 0.488546
1680.44, 0.488828
1680.98, 0.488875
1681.53, 0.488970
1682.07, 0.488970
1682.62, 0.489017
1683.17, 0.489252
1683.71, 0.489487
1684.26, 0.489628
1684.81, 0.489534
1685.36, 0.489393
1685.9, 0.489628
1686.45, 0.489958
1687.0, 0.490099
1687.55, 0.490052
1688.1, 0.490287
1688.65, 0.490381
1689.2, 0.490287
1689.75, 0.490240
1690.3, 0.490428
1690.85, 0.490663
1691.41, 0.490851
1691.96, 0.491134
1692.51, 0.491134
1693.06, 0.491134
1693.61, 0.491087
1694.17, 0.491134
1694.72, 0.491322
1695.28, 0.491369
1695.83, 0.491322
1696.39, 0.491416
1696.94, 0.491557
1697.5, 0.491604
1698.05, 0.491698
1698.61, 0.491745
1699.17, 0.491745
1699.72, 0.491934
1700.28, 0.491934
1700.84, 0.491981
1701.4, 0.492075
1701.95, 0.492028
1702.51, 0.491886
1703.07, 0.492122
1703.63, 0.492169
1704.19, 0.492075
1704.75, 0.492216
1705.31, 0.492310
1705.88, 0.492357
1706.44, 0.492310
1707.0, 0.492357
1707.56, 0.492498
1708.12, 0.492733
1708.69, 0.492733
1709.25, 0.492686
1709.81, 0.492545
1710.38, 0.492592
1710.94, 0.492592
1711.51, 0.492639
1712.07, 0.492733
1712.64, 0.492827
1713.2, 0.492780
1713.77, 0.492827
1714.34, 0.492827
1714.9, 0.492875
1715.47, 0.492827
1716.04, 0.492780
1716.61, 0.492922
1717.18, 0.492969
1717.74, 0.493016
1718.31, 0.492969
1718.88, 0.492969
1719.45, 0.493157
1720.02, 0.493157
1720.59, 0.492969
1721.17, 0.492969
1721.74, 0.493016
1722.31, 0.493016
1722.88, 0.493016
1723.45, 0.493016
1724.03, 0.492875
1724.6, 0.492922
1725.18, 0.492922
1725.75, 0.492922
1726.33, 0.493110
1726.9, 0.493110
1727.48, 0.492969
1728.05, 0.492922
1728.63, 0.492969
1729.2, 0.493063
1729.78, 0.493251
1730.36, 0.493345
1730.94, 0.493345
1731.51, 0.493204
1732.09, 0.493204
1732.67, 0.493251
1733.25, 0.493439
1733.83, 0.493298
1734.41, 0.493204
1734.99, 0.493486
1735.57, 0.493580
1736.15, 0.493533
1736.73, 0.493439
1737.32, 0.493345
1737.9, 0.493439
1738.48, 0.493580
1739.07, 0.493768
1739.65, 0.493721
1740.23, 0.493627
1740.82, 0.493580
1741.4, 0.493721
1741.99, 0.494004
1742.57, 0.494098
1743.16, 0.493910
1743.74, 0.493862
1744.33, 0.493768
1744.92, 0.493862
1745.51, 0.494004
1746.09, 0.494004
1746.68, 0.494004
1747.27, 0.494098
1747.86, 0.494098
1748.45, 0.494192
1749.04, 0.494192
1749.63, 0.494239
1750.22, 0.494380
1750.81, 0.494521
1751.4, 0.494286
1751.99, 0.494098
1752.59, 0.494145
1753.18, 0.494333
1753.77, 0.494474
1754.37, 0.494380
1754.96, 0.494474
1755.56, 0.494474
1756.15, 0.494615
1756.74, 0.494615
1757.34, 0.494521
1757.94, 0.494380
1758.53, 0.494474
1759.13, 0.494521
1759.73, 0.494615
1760.32, 0.494615
1760.92, 0.494521
1761.52, 0.494662
1762.12, 0.494803
1762.72, 0.494756
1763.32, 0.494662
1763.92, 0.494568
1764.52, 0.494521
1765.12, 0.494568
1765.72, 0.494709
1766.32, 0.494709
1766.92, 0.494662
1767.53, 0.494615
1768.13, 0.494568
1768.73, 0.494615
1769.34, 0.494615
1769.94, 0.494662
1770.55, 0.494521
1771.15, 0.494427
1771.76, 0.494239
1772.36, 0.494192
1772.97, 0.494333
1773.57, 0.494474
1774.18, 0.494521
1774.79, 0.494568
1775.4, 0.494521
1776.0, 0.494380
1776.61, 0.494286
1777.22, 0.494333
1777.83, 0.494192
1778.44, 0.494098
1779.05, 0.494004
1779.66, 0.494145
1780.27, 0.494004
1780.88, 0.493862
1781.5, 0.493862
1782.11, 0.493815
1782.72, 0.493815
1783.33, 0.493768
1783.95, 0.493533
1784.56, 0.493439
1785.18, 0.493392
1785.79, 0.493392
1786.41, 0.493439
1787.02, 0.493204
1787.64, 0.493016
1788.26, 0.493110
1788.87, 0.492969
1789.49, 0.492827
1790.11, 0.492780
1790.73, 0.492875
1791.35, 0.492780
1791.96, 0.492498
1792.58, 0.492451
1793.21, 0.492451
1793.83, 0.492357
1794.45, 0.492310
1795.07, 0.492310
1795.69, 0.492216
1796.31, 0.492075
1796.93, 0.492028
1797.56, 0.491934
1798.18, 0.491839
1798.8, 0.491792
1799.43, 0.491792
1800.05, 0.491698
1800.68, 0.491510
1801.3, 0.491463
1801.93, 0.491510
1802.56, 0.491416
1803.18, 0.491369
1803.81, 0.491510
1804.44, 0.491510
1805.07, 0.491228
1805.7, 0.491134
1806.33, 0.491134
1806.95, 0.491087
1807.58, 0.490946
1808.22, 0.490851
1808.85, 0.490946
1809.48, 0.490993
1810.11, 0.490804
1810.74, 0.490569
1811.38, 0.490522
1812.01, 0.490522
1812.64, 0.490616
1813.28, 0.490757
1813.91, 0.490710
1814.55, 0.490428
1815.18, 0.490005
1815.82, 0.490099
1816.45, 0.490381
1817.09, 0.490381
1817.73, 0.490193
1818.36, 0.490193
1819.0, 0.490287
1819.64, 0.489863
1820.28, 0.489440
1820.92, 0.489534
1821.56, 0.489534
1822.2, 0.489628
1822.84, 0.489816
1823.48, 0.490052
1824.12, 0.489958
1824.76, 0.490005
1825.41, 0.489487
1826.05, 0.488781
1826.69, 0.489158
1827.34, 0.489534
1827.98, 0.489393
1828.63, 0.489111
1829.27, 0.489017
1829.92, 0.489017
1830.56, 0.488687
1831.21, 0.488828
1831.86, 0.488970
1832.5, 0.488828
1833.15, 0.488922
1833.8, 0.489017
1834.45, 0.488593
1835.1, 0.488123
1835.75, 0.487699
1836.4, 0.487558
1837.05, 0.487605
1837.7, 0.487511
1838.35, 0.488029
1839.01, 0.487511
1839.66, 0.486805
1840.31, 0.487135
1840.96, 0.486805
1841.62, 0.486052
1842.27, 0.486523
1842.93, 0.486993
1843.58, 0.487041
1844.24, 0.486852
1844.9, 0.486523
1845.55, 0.486147
1846.21, 0.485206
1846.87, 0.484359
1847.53, 0.484453
1848.18, 0.484359
1848.84, 0.484782
1849.5, 0.484829
1850.16, 0.484782
1850.82, 0.484641
1851.48, 0.484171
1852.14, 0.483465
1852.81, 0.482618
1853.47, 0.481724
1854.13, 0.481912
1854.8, 0.482148
1855.46, 0.481583
1856.12, 0.480548
1856.79, 0.480219
1857.45, 0.480407
1858.12, 0.479889
1858.79, 0.478713
1859.45, 0.477490
1860.12, 0.477255
1860.79, 0.477113
1861.46, 0.476596
1862.12, 0.475843
1862.79, 0.474855
1863.46, 0.473820
1864.13, 0.472832
1864.8, 0.472126
1865.48, 0.471279
1866.15, 0.470291
1866.82, 0.468551
1867.49, 0.466669
1868.16, 0.465728
1868.84, 0.464693
1869.51, 0.463093
1870.19, 0.461023
1870.86, 0.458953
1871.54, 0.458012
1872.21, 0.455989
1872.89, 0.453401
1873.56, 0.451990
1874.24, 0.450390
1874.92, 0.448085
1875.6, 0.445827
1876.28, 0.443051
1876.96, 0.440322
1877.64, 0.438111
1878.32, 0.435429
1879.0, 0.432324
1879.68, 0.429077
1880.36, 0.426019
1881.04, 0.422726
1881.73, 0.419197
1882.41, 0.415622
1883.09, 0.411481
1883.78, 0.407294
1884.46, 0.403577
1885.15, 0.399578
1885.83, 0.395391
1886.52, 0.391016
1887.21, 0.386452
1887.89, 0.381700
1888.58, 0.376478
1889.27, 0.371067
1889.96, 0.365704
1890.65, 0.360717
1891.34, 0.355259
1892.03, 0.349378
1892.72, 0.343685
1893.41, 0.337663
1894.1, 0.331641
1894.79, 0.325901
1895.49, 0.320114
1896.18, 0.314516
1896.87, 0.308964
1897.57, 0.303648
1898.26, 0.298755
1898.96, 0.294097
1899.65, 0.290098
1900.35, 0.286804
1901.05, 0.283982
1901.74, 0.281347
1902.44, 0.278947
1903.14, 0.277442
1903.84, 0.276595
1904.54, 0.275466
1905.24, 0.274807
1905.94, 0.274948
1906.64, 0.275419
1907.34, 0.276407
1908.04, 0.277536
1908.75, 0.278665
