Database of Origin, USGS Spectral Database
Sample Description, See USGS database for additional info
Date Added,2017-07-03 06:06:54.884446

Data ID,USGS_mag06          
Sample ID, magnetite_hs78.13246
Mineral Name, magnetite
Material Class,Oxide

Wavelength
1499.61, 0.0395860
1500.04, 0.0396560
1500.48, 0.0395860
1500.91, 0.0398670
1501.35, 0.0397270
1501.78, 0.0397970
1502.22, 0.0397620
1502.65, 0.0393750
1503.09, 0.0392350
1503.53, 0.0391640
1503.96, 0.0391990
1504.4, 0.0393400
1504.83, 0.0394810
1505.27, 0.0396210
1505.71, 0.0397620
1506.15, 0.0396210
1506.58, 0.0393400
1507.02, 0.0391990
1507.46, 0.0393400
1507.9, 0.0397970
1508.34, 0.0397970
1508.78, 0.0397270
1509.21, 0.0397970
1509.66, 0.0391990
1510.09, 0.0389880
1510.53, 0.0393050
1510.97, 0.0394810
1511.42, 0.0397620
1511.86, 0.0399030
1512.3, 0.0397620
1512.74, 0.0398320
1513.18, 0.0397970
1513.62, 0.0397270
1514.06, 0.0396210
1514.51, 0.0394810
1514.95, 0.0396210
1515.39, 0.0397620
1515.83, 0.0395860
1516.28, 0.0396560
1516.72, 0.0395860
1517.16, 0.0396560
1517.61, 0.0397270
1518.05, 0.0397270
1518.5, 0.0397970
1518.94, 0.0398320
1519.39, 0.0399030
1519.83, 0.0397270
1520.28, 0.0395510
1520.73, 0.0398320
1521.17, 0.0398670
1521.62, 0.0400780
1522.07, 0.0403240
1522.51, 0.0397970
1522.96, 0.0394450
1523.41, 0.0397620
1523.85, 0.0402540
1524.3, 0.0400780
1524.75, 0.0397620
1525.2, 0.0400080
1525.65, 0.0399730
1526.1, 0.0399030
1526.55, 0.0400780
1527.0, 0.0400080
1527.45, 0.0400080
1527.9, 0.0401490
1528.35, 0.0402190
1528.8, 0.0401490
1529.25, 0.0398670
1529.7, 0.0399380
1530.15, 0.0400780
1530.6, 0.0399030
1531.05, 0.0399030
1531.51, 0.0398320
1531.96, 0.0399030
1532.41, 0.0397620
1532.87, 0.0398670
1533.32, 0.0399030
1533.77, 0.0398670
1534.23, 0.0398320
1534.68, 0.0397270
1535.14, 0.0398670
1535.59, 0.0401130
1536.05, 0.0399380
1536.5, 0.0399030
1536.96, 0.0401130
1537.41, 0.0401490
1537.87, 0.0402540
1538.32, 0.0404300
1538.78, 0.0404650
1539.24, 0.0403600
1539.7, 0.0400780
1540.15, 0.0400430
1540.61, 0.0400430
1541.07, 0.0401840
1541.53, 0.0403600
1541.98, 0.0402190
1542.44, 0.0401490
1542.9, 0.0402190
1543.36, 0.0401840
1543.82, 0.0399030
1544.28, 0.0399030
1544.74, 0.0399380
1545.2, 0.0400780
1545.66, 0.0401840
1546.12, 0.0402540
1546.59, 0.0405700
1547.05, 0.0406060
1547.51, 0.0403240
1547.97, 0.0403950
1548.43, 0.0406060
1548.9, 0.0406060
1549.36, 0.0403950
1549.82, 0.0400080
1550.29, 0.0400780
1550.75, 0.0402540
1551.21, 0.0400780
1551.68, 0.0400780
1552.14, 0.0403950
1552.61, 0.0407110
1553.07, 0.0407810
1553.54, 0.0405000
1554.0, 0.0403240
1554.47, 0.0405350
1554.93, 0.0406760
1555.4, 0.0407110
1555.87, 0.0406410
1556.34, 0.0402540
1556.8, 0.0401490
1557.27, 0.0402540
1557.74, 0.0403950
1558.21, 0.0406760
1558.68, 0.0406760
1559.14, 0.0407460
1559.61, 0.0406760
1560.08, 0.0402890
1560.55, 0.0403240
1561.02, 0.0407460
1561.49, 0.0410280
1561.96, 0.0409570
1562.43, 0.0405700
1562.9, 0.0405000
1563.38, 0.0408170
1563.85, 0.0410630
1564.32, 0.0409570
1564.79, 0.0407110
1565.26, 0.0406760
1565.74, 0.0407460
1566.21, 0.0408170
1566.68, 0.0407810
1567.16, 0.0406760
1567.63, 0.0408520
1568.1, 0.0408520
1568.58, 0.0405350
1569.05, 0.0407810
1569.53, 0.0411330
1570.0, 0.0409920
1570.48, 0.0406760
1570.96, 0.0407810
1571.43, 0.0407110
1571.91, 0.0407110
1572.39, 0.0405350
1572.86, 0.0405700
1573.34, 0.0408870
1573.82, 0.0408870
1574.3, 0.0409220
1574.77, 0.0411680
1575.25, 0.0413090
1575.73, 0.0410280
1576.21, 0.0408520
1576.69, 0.0409920
1577.17, 0.0410280
1577.65, 0.0408520
1578.13, 0.0408870
1578.61, 0.0409570
1579.09, 0.0412030
1579.57, 0.0412380
1580.05, 0.0408870
1580.54, 0.0408520
1581.02, 0.0407810
1581.5, 0.0410280
1581.98, 0.0412380
1582.47, 0.0412030
1582.95, 0.0411330
1583.43, 0.0411330
1583.92, 0.0410980
1584.4, 0.0411680
1584.88, 0.0411330
1585.37, 0.0412030
1585.85, 0.0412740
1586.34, 0.0411680
1586.82, 0.0411330
1587.31, 0.0411330
1587.8, 0.0413440
1588.28, 0.0413090
1588.77, 0.0412030
1589.26, 0.0411680
1589.74, 0.0411330
1590.23, 0.0411330
1590.72, 0.0412030
1591.21, 0.0412380
1591.7, 0.0413090
1592.19, 0.0412030
1592.67, 0.0412030
1593.16, 0.0413790
1593.65, 0.0414850
1594.14, 0.0414490
1594.63, 0.0415200
1595.12, 0.0414850
1595.61, 0.0415550
1596.11, 0.0416950
1596.6, 0.0415900
1597.09, 0.0416950
1597.58, 0.0413440
1598.08, 0.0410980
1598.57, 0.0412380
1599.06, 0.0414850
1599.55, 0.0414140
1600.05, 0.0412740
1600.54, 0.0412740
1601.04, 0.0413790
1601.53, 0.0413090
1602.03, 0.0410630
1602.52, 0.0411330
1603.02, 0.0413440
1603.51, 0.0413090
1604.01, 0.0414140
1604.5, 0.0416600
1605.0, 0.0415900
1605.5, 0.0415200
1606.0, 0.0416600
1606.49, 0.0418360
1606.99, 0.0416600
1607.49, 0.0415550
1607.99, 0.0417310
1608.49, 0.0416250
1608.99, 0.0414490
1609.49, 0.0415200
1609.99, 0.0416250
1610.49, 0.0416950
1610.99, 0.0416950
1611.49, 0.0416950
1611.99, 0.0418010
1612.49, 0.0416250
1612.99, 0.0416250
1613.49, 0.0418360
1614.0, 0.0419420
1614.5, 0.0416600
1615.0, 0.0415550
1615.51, 0.0419060
1616.01, 0.0420820
1616.51, 0.0417660
1617.02, 0.0418360
1617.52, 0.0419770
1618.03, 0.0417660
1618.53, 0.0415550
1619.04, 0.0417660
1619.54, 0.0419770
1620.05, 0.0420120
1620.55, 0.0422230
1621.06, 0.0421880
1621.57, 0.0420820
1622.08, 0.0420120
1622.58, 0.0418360
1623.09, 0.0418360
1623.6, 0.0419420
1624.11, 0.0418360
1624.62, 0.0416950
1625.13, 0.0418010
1625.64, 0.0419420
1626.15, 0.0418010
1626.66, 0.0419060
1627.17, 0.0420820
1627.68, 0.0421880
1628.19, 0.0422230
1628.7, 0.0421880
1629.21, 0.0421170
1629.72, 0.0421880
1630.24, 0.0422580
1630.75, 0.0421170
1631.26, 0.0416950
1631.78, 0.0415550
1632.29, 0.0418010
1632.8, 0.0419770
1633.32, 0.0420820
1633.83, 0.0421530
1634.35, 0.0421530
1634.86, 0.0419770
1635.38, 0.0419420
1635.9, 0.0420470
1636.41, 0.0419770
1636.93, 0.0418710
1637.45, 0.0421530
1637.96, 0.0426100
1638.48, 0.0425390
1639.0, 0.0421880
1639.52, 0.0420470
1640.04, 0.0421530
1640.56, 0.0423630
1641.08, 0.0423990
1641.59, 0.0424340
1642.11, 0.0421530
1642.63, 0.0423280
1643.16, 0.0426800
1643.68, 0.0426800
1644.2, 0.0424690
1644.72, 0.0423280
1645.24, 0.0424340
1645.76, 0.0426450
1646.29, 0.0425040
1646.81, 0.0421880
1647.33, 0.0420120
1647.86, 0.0420820
1648.38, 0.0423280
1648.9, 0.0424340
1649.43, 0.0423630
1649.95, 0.0424340
1650.48, 0.0425740
1651.0, 0.0427500
1651.53, 0.0427150
1652.06, 0.0426100
1652.58, 0.0423630
1653.11, 0.0424690
1653.64, 0.0427150
1654.17, 0.0425390
1654.69, 0.0424340
1655.22, 0.0425390
1655.75, 0.0426450
1656.28, 0.0424340
1656.81, 0.0423630
1657.34, 0.0425390
1657.87, 0.0427500
1658.4, 0.0426450
1658.93, 0.0426450
1659.46, 0.0426100
1659.99, 0.0426450
1660.52, 0.0427850
1661.05, 0.0428200
1661.59, 0.0428200
1662.12, 0.0426100
1662.65, 0.0425040
1663.19, 0.0426100
1663.72, 0.0428200
1664.26, 0.0427850
1664.79, 0.0427150
1665.32, 0.0428200
1665.86, 0.0428200
1666.39, 0.0429260
1666.93, 0.0428560
1667.47, 0.0427850
1668.0, 0.0426800
1668.54, 0.0426800
1669.08, 0.0426450
1669.61, 0.0425390
1670.15, 0.0425390
1670.69, 0.0428560
1671.23, 0.0429610
1671.77, 0.0427150
1672.31, 0.0427500
1672.85, 0.0429260
1673.39, 0.0429260
1673.93, 0.0429610
1674.47, 0.0430670
1675.01, 0.0429610
1675.55, 0.0428200
1676.09, 0.0429960
1676.64, 0.0431720
1677.18, 0.0429960
1677.72, 0.0429260
1678.26, 0.0429610
1678.81, 0.0430310
1679.35, 0.0431370
1679.89, 0.0429260
1680.44, 0.0428910
1680.98, 0.0430670
1681.53, 0.0432780
1682.07, 0.0433480
1682.62, 0.0431370
1683.17, 0.0431370
1683.71, 0.0432070
1684.26, 0.0429260
1684.81, 0.0428200
1685.36, 0.0430670
1685.9, 0.0433130
1686.45, 0.0433130
1687.0, 0.0431720
1687.55, 0.0430670
1688.1, 0.0431370
1688.65, 0.0433830
1689.2, 0.0433130
1689.75, 0.0430670
1690.3, 0.0431720
1690.85, 0.0432070
1691.41, 0.0431370
1691.96, 0.0432780
1692.51, 0.0433830
1693.06, 0.0434180
1693.61, 0.0433130
1694.17, 0.0432780
1694.72, 0.0432070
1695.28, 0.0433130
1695.83, 0.0433830
1696.39, 0.0433130
1696.94, 0.0432780
1697.5, 0.0432420
1698.05, 0.0431020
1698.61, 0.0432420
1699.17, 0.0434180
1699.72, 0.0432070
1700.28, 0.0431720
1700.84, 0.0432420
1701.4, 0.0433480
1701.95, 0.0434530
1702.51, 0.0434880
1703.07, 0.0434880
1703.63, 0.0435590
1704.19, 0.0434530
1704.75, 0.0434880
1705.31, 0.0436290
1705.88, 0.0436290
1706.44, 0.0433830
1707.0, 0.0432780
1707.56, 0.0435240
1708.12, 0.0436290
1708.69, 0.0435940
1709.25, 0.0434180
1709.81, 0.0433830
1710.38, 0.0434530
1710.94, 0.0435940
1711.51, 0.0437350
1712.07, 0.0436640
1712.64, 0.0437700
1713.2, 0.0437350
1713.77, 0.0435240
1714.34, 0.0435590
1714.9, 0.0435940
1715.47, 0.0435240
1716.04, 0.0434880
1716.61, 0.0435590
1717.18, 0.0435590
1717.74, 0.0435590
1718.31, 0.0436290
1718.88, 0.0437700
1719.45, 0.0438750
1720.02, 0.0438750
1720.59, 0.0437350
1721.17, 0.0434180
1721.74, 0.0433830
1722.31, 0.0436640
1722.88, 0.0439450
1723.45, 0.0440510
1724.03, 0.0438400
1724.6, 0.0437700
1725.18, 0.0437700
1725.75, 0.0439100
1726.33, 0.0441210
1726.9, 0.0440510
1727.48, 0.0437700
1728.05, 0.0437700
1728.63, 0.0439100
1729.2, 0.0439810
1729.78, 0.0440160
1730.36, 0.0438750
1730.94, 0.0437700
1731.51, 0.0439810
1732.09, 0.0441210
1732.67, 0.0439450
1733.25, 0.0437700
1733.83, 0.0438750
1734.41, 0.0441560
1734.99, 0.0441920
1735.57, 0.0441210
1736.15, 0.0439810
1736.73, 0.0438400
1737.32, 0.0437350
1737.9, 0.0438050
1738.48, 0.0438400
1739.07, 0.0439100
1739.65, 0.0438750
1740.23, 0.0440160
1740.82, 0.0440860
1741.4, 0.0438750
1741.99, 0.0439810
1742.57, 0.0440160
1743.16, 0.0440160
1743.74, 0.0441210
1744.33, 0.0442270
1744.92, 0.0442270
1745.51, 0.0441920
1746.09, 0.0442970
1746.68, 0.0441920
1747.27, 0.0441920
1747.86, 0.0442970
1748.45, 0.0444030
1749.04, 0.0442620
1749.63, 0.0442970
1750.22, 0.0444030
1750.81, 0.0443320
1751.4, 0.0442970
1751.99, 0.0444380
1752.59, 0.0444380
1753.18, 0.0442970
1753.77, 0.0442970
1754.37, 0.0441920
1754.96, 0.0441210
1755.56, 0.0442970
1756.15, 0.0443670
1756.74, 0.0442620
1757.34, 0.0443320
1757.94, 0.0445080
1758.53, 0.0446490
1759.13, 0.0446840
1759.73, 0.0445780
1760.32, 0.0444730
1760.92, 0.0444030
1761.52, 0.0445430
1762.12, 0.0447190
1762.72, 0.0446840
1763.32, 0.0445430
1763.92, 0.0445430
1764.52, 0.0444030
1765.12, 0.0443320
1765.72, 0.0444380
1766.32, 0.0446130
1766.92, 0.0446840
1767.53, 0.0445780
1768.13, 0.0445780
1768.73, 0.0447190
1769.34, 0.0446130
1769.94, 0.0445080
1770.55, 0.0445780
1771.15, 0.0446490
1771.76, 0.0446130
1772.36, 0.0445780
1772.97, 0.0445430
1773.57, 0.0445430
1774.18, 0.0446490
1774.79, 0.0446840
1775.4, 0.0446490
1776.0, 0.0445430
1776.61, 0.0445080
1777.22, 0.0445080
1777.83, 0.0445780
1778.44, 0.0447190
1779.05, 0.0447890
1779.66, 0.0448600
1780.27, 0.0448950
1780.88, 0.0447190
1781.5, 0.0446130
1782.11, 0.0445430
1782.72, 0.0445430
1783.33, 0.0445780
1783.95, 0.0447190
1784.56, 0.0448240
1785.18, 0.0447540
1785.79, 0.0446840
1786.41, 0.0447890
1787.02, 0.0447890
1787.64, 0.0447540
1788.26, 0.0447190
1788.87, 0.0447190
1789.49, 0.0448240
1790.11, 0.0448240
1790.73, 0.0448240
1791.35, 0.0448600
1791.96, 0.0448950
1792.58, 0.0448600
1793.21, 0.0449300
1793.83, 0.0450350
1794.45, 0.0448600
1795.07, 0.0447190
1795.69, 0.0447890
1796.31, 0.0449300
1796.93, 0.0449300
1797.56, 0.0450000
1798.18, 0.0450000
1798.8, 0.0449300
1799.43, 0.0449300
1800.05, 0.0449300
1800.68, 0.0449650
1801.3, 0.0451410
1801.93, 0.0451760
1802.56, 0.0451060
1803.18, 0.0451760
1803.81, 0.0451060
1804.44, 0.0449300
1805.07, 0.0449650
1805.7, 0.0450350
1806.33, 0.0450350
1806.95, 0.0450710
1807.58, 0.0451410
1808.22, 0.0450350
1808.85, 0.0450350
1809.48, 0.0450000
1810.11, 0.0449650
1810.74, 0.0450710
1811.38, 0.0452110
1812.01, 0.0450710
1812.64, 0.0451060
1813.28, 0.0452810
1813.91, 0.0452460
1814.55, 0.0451410
1815.18, 0.0451760
1815.82, 0.0452110
1816.45, 0.0452460
1817.09, 0.0453870
1817.73, 0.0452810
1818.36, 0.0451760
1819.0, 0.0452810
1819.64, 0.0452810
1820.28, 0.0452110
1820.92, 0.0452460
1821.56, 0.0453170
1822.2, 0.0452810
1822.84, 0.0453520
1823.48, 0.0453870
1824.12, 0.0452110
1824.76, 0.0452460
1825.41, 0.0453870
1826.05, 0.0452460
1826.69, 0.0452810
1827.34, 0.0452810
1827.98, 0.0452810
1828.63, 0.0453170
1829.27, 0.0453170
1829.92, 0.0453870
1830.56, 0.0453870
1831.21, 0.0454920
1831.86, 0.0454570
1832.5, 0.0454220
1833.15, 0.0454920
1833.8, 0.0454220
1834.45, 0.0453870
1835.1, 0.0455630
1835.75, 0.0454570
1836.4, 0.0454220
1837.05, 0.0454570
1837.7, 0.0454220
1838.35, 0.0454920
1839.01, 0.0455280
1839.66, 0.0455280
1840.31, 0.0455280
1840.96, 0.0455630
1841.62, 0.0455280
1842.27, 0.0455980
1842.93, 0.0456680
1843.58, 0.0457740
1844.24, 0.0458090
1844.9, 0.0459850
1845.55, 0.0460200
1846.21, 0.0455980
1846.87, 0.0453520
1847.53, 0.0455280
1848.18, 0.0457030
1848.84, 0.0458440
1849.5, 0.0458090
1850.16, 0.0459140
1850.82, 0.0459490
1851.48, 0.0460200
1852.14, 0.0459490
1852.81, 0.0458090
1853.47, 0.0456680
1854.13, 0.0456680
1854.8, 0.0457740
1855.46, 0.0457380
1856.12, 0.0457030
1856.79, 0.0458790
1857.45, 0.0459490
1858.12, 0.0459490
1858.79, 0.0459490
1859.45, 0.0459140
1860.12, 0.0460550
1860.79, 0.0460200
1861.46, 0.0459490
1862.12, 0.0459850
1862.79, 0.0460550
1863.46, 0.0461250
1864.13, 0.0460550
1864.8, 0.0460900
1865.48, 0.0460900
1866.15, 0.0460200
1866.82, 0.0459490
1867.49, 0.0458790
1868.16, 0.0459140
1868.84, 0.0459850
1869.51, 0.0459490
1870.19, 0.0458790
1870.86, 0.0459490
1871.54, 0.0460900
1872.21, 0.0460200
1872.89, 0.0458790
1873.56, 0.0460900
1874.24, 0.0462660
1874.92, 0.0462310
1875.6, 0.0460900
1876.28, 0.0460550
1876.96, 0.0460550
1877.64, 0.0460900
1878.32, 0.0462660
1879.0, 0.0463360
1879.68, 0.0461960
1880.36, 0.0461250
1881.04, 0.0461250
1881.73, 0.0461960
1882.41, 0.0461250
1883.09, 0.0460550
1883.78, 0.0461600
1884.46, 0.0464060
1885.15, 0.0463360
1885.83, 0.0461960
1886.52, 0.0462310
1887.21, 0.0464420
1887.89, 0.0465120
1888.58, 0.0464420
1889.27, 0.0463010
1889.96, 0.0463010
1890.65, 0.0462660
1891.34, 0.0463010
1892.03, 0.0464770
1892.72, 0.0465470
1893.41, 0.0464770
1894.1, 0.0465120
1894.79, 0.0465470
1895.49, 0.0465470
1896.18, 0.0464420
1896.87, 0.0463360
1897.57, 0.0464060
1898.26, 0.0464420
1898.96, 0.0463010
1899.65, 0.0463010
1900.35, 0.0465470
1901.05, 0.0466530
1901.74, 0.0465470
1902.44, 0.0464420
1903.14, 0.0464770
1903.84, 0.0465120
1904.54, 0.0465120
1905.24, 0.0465120
1905.94, 0.0465120
1906.64, 0.0466530
1907.34, 0.0466170
1908.04, 0.0465820
1908.75, 0.0466530
1909.45, 0.0466880
1910.15, 0.0467230
1910.86, 0.0466170
1911.56, 0.0466170
1912.27, 0.0467230
1912.97, 0.0467580
1913.68, 0.0465820
1914.39, 0.0466170
1915.09, 0.0467230
1915.8, 0.0467580
1916.51, 0.0467580
1917.22, 0.0467580
1917.93, 0.0467230
1918.64, 0.0467580
1919.35, 0.0467230
1920.06, 0.0466880
1920.77, 0.0468630
1921.48, 0.0468990
1922.19, 0.0467930
1922.91, 0.0468630
1923.62, 0.0468990
1924.33, 0.0469340
1925.05, 0.0469340
1925.76, 0.0470390
1926.48, 0.0470390
1927.19, 0.0470040
1927.91, 0.0470040
1928.63, 0.0470040
1929.35, 0.0470740
1930.07, 0.0470390
1930.78, 0.0469340
1931.5, 0.0470040
1932.22, 0.0471800
1932.94, 0.0471450
1933.66, 0.0470740
1934.39, 0.0471450
1935.11, 0.0472150
1935.83, 0.0471800
1936.55, 0.0470390
1937.28, 0.0469690
1938.0, 0.0470390
1938.73, 0.0471450
1939.45, 0.0472150
1940.18, 0.0472500
1940.9, 0.0472500
1941.63, 0.0472850
1942.36, 0.0473210
1943.09, 0.0472150
1943.81, 0.0472150
1944.54, 0.0472850
1945.27, 0.0471450
1946.0, 0.0471100
1946.73, 0.0472500
1947.47, 0.0473560
1948.2, 0.0474260
1948.93, 0.0474260
1949.66, 0.0472850
1950.4, 0.0472150
1951.13, 0.0472850
1951.86, 0.0472150
1952.6, 0.0471800
1953.34, 0.0472500
1954.07, 0.0472850
1954.81, 0.0472500
1955.55, 0.0471800
1956.29, 0.0472500
1957.02, 0.0473910
1957.76, 0.0473560
1958.5, 0.0473560
1959.24, 0.0473560
1959.98, 0.0473910
1960.72, 0.0474960
1961.47, 0.0474960
1962.21, 0.0473910
1962.95, 0.0473560
1963.7, 0.0474610
1964.44, 0.0474610
1965.18, 0.0474610
1965.93, 0.0473910
1966.67, 0.0473210
1967.42, 0.0474960
1968.17, 0.0475310
1968.92, 0.0474260
1969.66, 0.0474960
1970.41, 0.0475670
1971.16, 0.0476370
1971.91, 0.0475310
1972.66, 0.0474610
1973.41, 0.0475310
1974.16, 0.0475670
1974.92, 0.0475310
1975.67, 0.0475670
1976.42, 0.0475670
1977.18, 0.0474960
1977.93, 0.0475670
1978.69, 0.0476720
1979.44, 0.0477070
1980.2, 0.0476720
1980.95, 0.0477420
1981.71, 0.0477420
1982.47, 0.0476720
1983.23, 0.0476370
1983.99, 0.0477420
1984.74, 0.0477780
1985.51, 0.0477070
1986.27, 0.0477420
1987.03, 0.0478480
1987.79, 0.0479530
1988.55, 0.0479180
1989.32, 0.0478130
1990.08, 0.0477420
1990.84, 0.0478130
1991.61, 0.0478130
1992.37, 0.0477420
1993.14, 0.0477420
1993.9, 0.0478480
1994.67, 0.0478130
1995.44, 0.0479530
1996.21, 0.0479530
1996.98, 0.0479180
1997.75, 0.0479180
1998.52, 0.0479180
1999.29, 0.0479180
2000.06, 0.0480240
2000.83, 0.0480590
2001.6, 0.0481290
2002.38, 0.0480590
2003.15, 0.0480590
2003.93, 0.0481290
2004.7, 0.0481290
2005.48, 0.0481290
2006.25, 0.0481640
2007.03, 0.0480240
2007.81, 0.0478830
2008.58, 0.0479880
2009.36, 0.0481990
2010.14, 0.0482350
2010.92, 0.0481640
2011.7, 0.0481990
2012.48, 0.0481990
2013.26, 0.0480940
2014.05, 0.0480240
2014.83, 0.0480940
2015.61, 0.0481990
2016.4, 0.0481290
2017.18, 0.0480590
2017.97, 0.0481640
2018.75, 0.0483050
2019.54, 0.0483750
2020.32, 0.0483750
2021.11, 0.0484460
2021.9, 0.0483400
2022.69, 0.0481990
2023.48, 0.0482350
2024.27, 0.0482350
2025.06, 0.0483050
2025.85, 0.0484460
2026.64, 0.0483400
2027.44, 0.0482350
2028.23, 0.0484460
2029.02, 0.0484460
2029.82, 0.0484100
2030.61, 0.0484100
2031.41, 0.0483750
2032.2, 0.0484100
2033.0, 0.0484810
2033.8, 0.0485510
2034.6, 0.0485160
2035.4, 0.0484460
2036.2, 0.0485860
2037.0, 0.0487270
2037.8, 0.0485860
2038.6, 0.0485860
2039.4, 0.0486560
2040.2, 0.0487270
2041.01, 0.0486210
2041.81, 0.0484810
2042.61, 0.0484460
2043.42, 0.0483400
2044.22, 0.0482700
2045.03, 0.0484810
2045.84, 0.0486560
2046.65, 0.0486560
2047.46, 0.0485860
2048.26, 0.0486920
2049.07, 0.0488320
2049.88, 0.0486920
2050.69, 0.0486210
2051.51, 0.0486920
2052.32, 0.0488320
2053.13, 0.0488670
2053.94, 0.0487970
2054.76, 0.0485860
2055.57, 0.0485160
2056.39, 0.0486560
2057.2, 0.0487270
2058.02, 0.0486920
2058.84, 0.0488320
2059.66, 0.0489030
2060.48, 0.0488320
2061.29, 0.0487620
2062.11, 0.0487970
2062.94, 0.0487620
2063.76, 0.0487620
2064.58, 0.0487620
2065.4, 0.0487620
2066.22, 0.0487970
2067.05, 0.0487620
2067.87, 0.0488320
2068.7, 0.0490780
2069.52, 0.0490780
2070.35, 0.0489030
2071.18, 0.0488670
2072.0, 0.0487970
2072.83, 0.0487970
2073.66, 0.0488670
2074.49, 0.0488320
2075.32, 0.0487970
2076.15, 0.0487970
2076.98, 0.0489380
2077.82, 0.0491130
2078.65, 0.0490080
2079.48, 0.0490430
2080.32, 0.0490430
2081.15, 0.0490080
2081.99, 0.0490080
2082.83, 0.0489730
2083.66, 0.0489730
2084.5, 0.0490080
2085.34, 0.0490430
2086.18, 0.0490780
2087.02, 0.0491840
2087.86, 0.0492190
2088.7, 0.0491840
2089.54, 0.0491130
2090.39, 0.0490780
2091.23, 0.0490780
2092.07, 0.0492190
2092.92, 0.0491840
2093.76, 0.0492190
2094.61, 0.0492890
2095.45, 0.0491840
2096.3, 0.0490780
2097.15, 0.0491840
2098.0, 0.0493950
2098.85, 0.0493240
2099.7, 0.0491840
2100.55, 0.0491840
2101.4, 0.0492540
2102.25, 0.0493600
