Database of Origin,USGS Spectral Database
Sample Description,See USGS database for additional info
Date Added,2017-02-22 02:49:15.686167

Data ID,USGS_thu09          
Sample ID,thuringite_smr15.21983
Mineral Name,thuringite

Wavelength
1374.38, 0.216502
1374.74, 0.216502
1375.11, 0.216714
1375.47, 0.216661
1375.84, 0.216793
1376.2, 0.216952
1376.57, 0.217110
1376.93, 0.217163
1377.3, 0.217322
1377.67, 0.217295
1378.03, 0.217375
1378.4, 0.217322
1378.76, 0.217216
1379.13, 0.217533
1379.5, 0.217824
1379.87, 0.217692
1380.23, 0.217850
1380.6, 0.217956
1380.97, 0.217903
1381.34, 0.217983
1381.7, 0.218168
1382.07, 0.218168
1382.44, 0.218035
1382.81, 0.218062
1383.18, 0.218273
1383.55, 0.218300
1383.92, 0.218353
1384.29, 0.218406
1384.66, 0.218168
1385.03, 0.218194
1385.4, 0.218353
1385.77, 0.218511
1386.14, 0.218326
1386.51, 0.218564
1386.88, 0.218908
1387.25, 0.219040
1387.62, 0.218961
1387.99, 0.218829
1388.36, 0.218696
1388.74, 0.218670
1389.11, 0.218696
1389.48, 0.218855
1389.85, 0.218934
1390.23, 0.219014
1390.6, 0.218987
1390.97, 0.218749
1391.35, 0.218591
1391.72, 0.218749
1392.09, 0.218670
1392.47, 0.218749
1392.84, 0.218723
1393.21, 0.218696
1393.59, 0.218538
1393.96, 0.218353
1394.34, 0.218062
1394.71, 0.217983
1395.09, 0.218221
1395.46, 0.218168
1395.84, 0.217956
1396.22, 0.217718
1396.59, 0.217850
1396.97, 0.217798
1397.35, 0.217560
1397.72, 0.217665
1398.1, 0.217612
1398.48, 0.217560
1398.85, 0.217322
1399.23, 0.217057
1399.61, 0.217084
1399.99, 0.217057
1400.37, 0.216899
1400.74, 0.216608
1401.12, 0.216423
1401.5, 0.216053
1401.88, 0.215471
1402.26, 0.215022
1402.64, 0.214651
1403.02, 0.214387
1403.4, 0.214202
1403.78, 0.213964
1404.16, 0.213435
1404.54, 0.212906
1404.92, 0.212642
1405.3, 0.212589
1405.68, 0.212589
1406.06, 0.212351
1406.44, 0.211928
1406.83, 0.211637
1407.21, 0.211611
1407.59, 0.211690
1407.97, 0.211743
1408.35, 0.211585
1408.74, 0.211505
1409.12, 0.211267
1409.5, 0.211294
1409.89, 0.211162
1410.27, 0.210924
1410.65, 0.210739
1411.04, 0.210553
1411.42, 0.210183
1411.81, 0.209972
1412.19, 0.209840
1412.58, 0.209390
1412.96, 0.209046
1413.35, 0.208994
1413.73, 0.208835
1414.12, 0.208861
1414.5, 0.209099
1414.89, 0.209522
1415.28, 0.209972
1415.66, 0.210474
1416.05, 0.211029
1416.44, 0.211585
1416.82, 0.212034
1417.21, 0.212669
1417.6, 0.213197
1417.98, 0.213673
1418.37, 0.214096
1418.76, 0.214704
1419.15, 0.215127
1419.54, 0.215445
1419.93, 0.215920
1420.32, 0.216581
1420.71, 0.216899
1421.09, 0.217031
1421.48, 0.217295
1421.88, 0.217612
1422.27, 0.217903
1422.66, 0.218035
1423.05, 0.217983
1423.44, 0.218168
1423.83, 0.218353
1424.22, 0.218591
1424.61, 0.218776
1425.0, 0.218829
1425.39, 0.219014
1425.78, 0.219067
1426.18, 0.219199
1426.57, 0.219305
1426.96, 0.219357
1427.36, 0.219463
1427.75, 0.219701
1428.14, 0.219648
1428.54, 0.219780
1428.93, 0.219913
1429.32, 0.219780
1429.72, 0.219728
1430.11, 0.219728
1430.51, 0.219833
1430.9, 0.219860
1431.3, 0.219886
1431.69, 0.219860
1432.09, 0.220071
1432.48, 0.220098
1432.88, 0.220098
1433.28, 0.220124
1433.67, 0.220045
1434.07, 0.219833
1434.46, 0.219886
1434.86, 0.220098
1435.26, 0.220098
1435.66, 0.220177
1436.05, 0.220283
1436.45, 0.220177
1436.85, 0.220203
1437.25, 0.220230
1437.65, 0.220098
1438.05, 0.219965
1438.44, 0.220018
1438.84, 0.220151
1439.24, 0.220203
1439.64, 0.220256
1440.04, 0.220547
1440.44, 0.220574
1440.84, 0.220388
1441.24, 0.220336
1441.65, 0.220336
1442.05, 0.220415
1442.45, 0.220600
1442.85, 0.220706
1443.25, 0.220653
1443.65, 0.220574
1444.05, 0.220679
1444.46, 0.220706
1444.86, 0.220679
1445.26, 0.220732
1445.67, 0.220732
1446.07, 0.220706
1446.47, 0.220679
1446.88, 0.220706
1447.28, 0.220891
1447.68, 0.221023
1448.09, 0.221129
1448.49, 0.221182
1448.9, 0.221208
1449.3, 0.221076
1449.71, 0.220997
1450.11, 0.221102
1450.52, 0.221446
1450.93, 0.221552
1451.33, 0.221578
1451.74, 0.221631
1452.14, 0.221657
1452.55, 0.221552
1452.96, 0.221737
1453.36, 0.221869
1453.77, 0.221895
1454.18, 0.221922
1454.59, 0.222001
1455.0, 0.222081
1455.41, 0.222054
1455.81, 0.221948
1456.22, 0.221975
1456.63, 0.222186
1457.04, 0.222371
1457.45, 0.222556
1457.86, 0.222583
1458.27, 0.222451
1458.68, 0.222609
1459.09, 0.222715
1459.5, 0.222662
1459.91, 0.222662
1460.32, 0.222689
1460.74, 0.222794
1461.15, 0.222741
1461.56, 0.222741
1461.97, 0.222794
1462.39, 0.222847
1462.8, 0.222874
1463.21, 0.222979
1463.62, 0.223217
1464.04, 0.223164
1464.45, 0.223191
1464.86, 0.223402
1465.28, 0.223561
1465.69, 0.223587
1466.11, 0.223561
1466.52, 0.223587
1466.94, 0.223587
1467.35, 0.223614
1467.77, 0.223693
1468.18, 0.223640
1468.6, 0.223746
1469.02, 0.223958
1469.43, 0.223984
1469.85, 0.224196
1470.27, 0.224196
1470.68, 0.224248
1471.1, 0.224248
1471.52, 0.224275
1471.94, 0.224248
1472.35, 0.224513
1472.77, 0.224698
1473.19, 0.224698
1473.61, 0.224539
1474.03, 0.224513
1474.45, 0.224777
1474.87, 0.224909
1475.29, 0.225042
1475.71, 0.224989
1476.13, 0.225015
1476.55, 0.225147
1476.97, 0.225280
1477.39, 0.225332
1477.81, 0.225517
1478.23, 0.225491
1478.65, 0.225517
1479.07, 0.225570
1479.5, 0.225597
1479.92, 0.225650
1480.34, 0.225782
1480.76, 0.226046
1481.19, 0.226126
1481.61, 0.226073
1482.03, 0.226073
1482.46, 0.226126
1482.88, 0.226337
1483.31, 0.226443
1483.73, 0.226549
1484.16, 0.226601
1484.58, 0.226628
1485.01, 0.226787
1485.43, 0.226945
1485.86, 0.226972
1486.28, 0.226919
1486.71, 0.227051
1487.14, 0.227157
1487.56, 0.227104
1487.99, 0.227130
1488.42, 0.227289
1488.84, 0.227368
1489.27, 0.227421
1489.7, 0.227606
1490.13, 0.227685
1490.56, 0.227712
1490.98, 0.227870
1491.41, 0.227870
1491.84, 0.228029
1492.27, 0.228082
1492.7, 0.228082
1493.13, 0.228188
1493.56, 0.228294
1493.99, 0.228294
1494.42, 0.228320
1494.85, 0.228531
1495.29, 0.228611
1495.72, 0.228611
1496.15, 0.228690
1496.58, 0.228822
1497.01, 0.228875
1497.44, 0.228902
1497.88, 0.228954
1498.31, 0.229060
1498.74, 0.229087
1499.18, 0.229192
1499.61, 0.229377
1500.04, 0.229404
1500.48, 0.229589
1500.91, 0.229774
1501.35, 0.229800
1501.78, 0.229933
1502.22, 0.229880
1502.65, 0.229986
1503.09, 0.230012
1503.53, 0.230144
1503.96, 0.230356
1504.4, 0.230409
1504.83, 0.230303
1505.27, 0.230303
1505.71, 0.230488
1506.15, 0.230673
1506.58, 0.230699
1507.02, 0.230832
1507.46, 0.230832
1507.9, 0.230752
1508.34, 0.230964
1508.78, 0.231228
1509.21, 0.231202
1509.66, 0.231175
1510.09, 0.231228
1510.53, 0.231360
1510.97, 0.231466
1511.42, 0.231572
1511.86, 0.231704
1512.3, 0.231836
1512.74, 0.231889
1513.18, 0.231916
1513.62, 0.231995
1514.06, 0.232048
1514.51, 0.232127
1514.95, 0.232127
1515.39, 0.232180
1515.83, 0.232312
1516.28, 0.232206
1516.72, 0.232471
1517.16, 0.232656
1517.61, 0.232629
1518.05, 0.232788
1518.5, 0.232867
1518.94, 0.232894
1519.39, 0.232973
1519.83, 0.233079
1520.28, 0.233185
1520.73, 0.233237
1521.17, 0.233396
1521.62, 0.233396
1522.07, 0.233343
1522.51, 0.233317
1522.96, 0.233475
1523.41, 0.233555
1523.85, 0.233687
1524.3, 0.233766
1524.75, 0.233713
1525.2, 0.233819
1525.65, 0.233898
1526.1, 0.234031
1526.55, 0.234189
1527.0, 0.234242
1527.45, 0.234269
1527.9, 0.234401
1528.35, 0.234533
1528.8, 0.234559
1529.25, 0.234639
1529.7, 0.234877
1530.15, 0.234982
1530.6, 0.234877
1531.05, 0.234824
1531.51, 0.234929
1531.96, 0.235062
1532.41, 0.235088
1532.87, 0.235141
1533.32, 0.235247
1533.77, 0.235326
1534.23, 0.235405
1534.68, 0.235538
1535.14, 0.235749
1535.59, 0.235855
1536.05, 0.235934
1536.5, 0.236013
1536.96, 0.236172
1537.41, 0.236251
1537.87, 0.236304
1538.32, 0.236410
1538.78, 0.236463
1539.24, 0.236648
1539.7, 0.236754
1540.15, 0.236727
1540.61, 0.236859
1541.07, 0.236833
1541.53, 0.236912
1541.98, 0.237044
1542.44, 0.237044
1542.9, 0.237256
1543.36, 0.237362
1543.82, 0.237547
1544.28, 0.237679
1544.74, 0.237732
1545.2, 0.237891
1545.66, 0.237917
1546.12, 0.237891
1546.59, 0.237970
1547.05, 0.238128
1547.51, 0.238393
1547.97, 0.238631
1548.43, 0.238684
1548.9, 0.238631
1549.36, 0.238789
1549.82, 0.239027
1550.29, 0.239107
1550.75, 0.239265
1551.21, 0.239265
1551.68, 0.239318
1552.14, 0.239371
1552.61, 0.239450
1553.07, 0.239503
1553.54, 0.239662
1554.0, 0.239821
1554.47, 0.239847
1554.93, 0.239979
1555.4, 0.240191
1555.87, 0.240244
1556.34, 0.240296
1556.8, 0.240429
1557.27, 0.240481
1557.74, 0.240561
1558.21, 0.240825
1558.68, 0.240957
1559.14, 0.241063
1559.61, 0.241248
1560.08, 0.241301
1560.55, 0.241380
1561.02, 0.241380
1561.49, 0.241565
1561.96, 0.241724
1562.43, 0.241777
1562.9, 0.241830
1563.38, 0.241936
1563.85, 0.242094
1564.32, 0.242253
1564.79, 0.242359
1565.26, 0.242676
1565.74, 0.242702
1566.21, 0.242755
1566.68, 0.242861
1567.16, 0.242967
1567.63, 0.243072
1568.1, 0.243257
1568.58, 0.243469
1569.05, 0.243628
1569.53, 0.243654
1570.0, 0.243681
1570.48, 0.243786
1570.96, 0.243892
1571.43, 0.244024
1571.91, 0.244024
1572.39, 0.244051
1572.86, 0.244315
1573.34, 0.244685
1573.82, 0.244738
1574.3, 0.244764
1574.77, 0.244844
1575.25, 0.244923
1575.73, 0.245187
1576.21, 0.245293
1576.69, 0.245346
1577.17, 0.245478
1577.65, 0.245584
1578.13, 0.245663
1578.61, 0.245743
1579.09, 0.245848
1579.57, 0.245928
1580.05, 0.246192
1580.54, 0.246377
1581.02, 0.246377
1581.5, 0.246324
1581.98, 0.246430
1582.47, 0.246615
1582.95, 0.246774
1583.43, 0.246853
1583.92, 0.247012
1584.4, 0.247117
1584.88, 0.247250
1585.37, 0.247355
1585.85, 0.247408
1586.34, 0.247620
1586.82, 0.247646
1587.31, 0.247778
1587.8, 0.247911
1588.28, 0.248016
1588.77, 0.248096
1589.26, 0.248175
1589.74, 0.248254
1590.23, 0.248439
1590.72, 0.248651
1591.21, 0.248810
1591.7, 0.248995
1592.19, 0.249127
1592.67, 0.249100
1593.16, 0.249259
1593.65, 0.249391
1594.14, 0.249470
1594.63, 0.249629
1595.12, 0.249814
1595.61, 0.249814
1596.11, 0.249920
1596.6, 0.250026
1597.09, 0.250184
1597.58, 0.250396
1598.08, 0.250502
1598.57, 0.250502
1599.06, 0.250554
1599.55, 0.250739
1600.05, 0.250872
1600.54, 0.250925
1601.04, 0.251057
1601.53, 0.251162
1602.03, 0.251374
1602.52, 0.251506
1603.02, 0.251638
1603.51, 0.251665
1604.01, 0.251771
1604.5, 0.251850
1605.0, 0.252141
1605.5, 0.252379
1606.0, 0.252484
1606.49, 0.252564
1606.99, 0.252617
1607.49, 0.252669
1607.99, 0.252775
1608.49, 0.252960
1608.99, 0.253225
1609.49, 0.253278
1609.99, 0.253357
1610.49, 0.253436
1610.99, 0.253542
1611.49, 0.253780
1611.99, 0.254018
1612.49, 0.253938
1612.99, 0.254071
1613.49, 0.254282
1614.0, 0.254388
1614.5, 0.254494
1615.0, 0.254626
1615.51, 0.254785
1616.01, 0.254943
1616.51, 0.255128
1617.02, 0.255234
1617.52, 0.255419
1618.03, 0.255472
1618.53, 0.255472
1619.04, 0.255736
1619.54, 0.255948
1620.05, 0.256027
1620.55, 0.256080
1621.06, 0.256186
1621.57, 0.256371
1622.08, 0.256450
1622.58, 0.256688
1623.09, 0.256794
1623.6, 0.256900
1624.11, 0.256979
1624.62, 0.257138
1625.13, 0.257349
1625.64, 0.257402
1626.15, 0.257561
1626.66, 0.257772
1627.17, 0.257878
1627.68, 0.257957
1628.19, 0.257984
1628.7, 0.258063
1629.21, 0.258327
1629.72, 0.258354
1630.24, 0.258407
1630.75, 0.258750
1631.26, 0.258988
1631.78, 0.259094
1632.29, 0.259200
1632.8, 0.259305
1633.32, 0.259491
1633.83, 0.259543
1634.35, 0.259702
1634.86, 0.259861
1635.38, 0.259914
1635.9, 0.260072
1636.41, 0.260310
1636.93, 0.260389
1637.45, 0.260495
1637.96, 0.260574
1638.48, 0.260601
1639.0, 0.260839
1639.52, 0.260998
1640.04, 0.261130
1640.56, 0.261288
1641.08, 0.261368
1641.59, 0.261500
1642.11, 0.261658
1642.63, 0.261791
1643.16, 0.261844
1643.68, 0.262029
1644.2, 0.262267
1644.72, 0.262267
1645.24, 0.262240
1645.76, 0.262372
1646.29, 0.262478
1646.81, 0.262610
1647.33, 0.262795
1647.86, 0.262954
1648.38, 0.263113
1648.9, 0.263271
1649.43, 0.263403
1649.95, 0.263430
1650.48, 0.263509
1651.0, 0.263588
1651.53, 0.263721
1652.06, 0.263932
1652.58, 0.263985
1653.11, 0.264144
1653.64, 0.264249
1654.17, 0.264329
1654.69, 0.264382
1655.22, 0.264567
1655.75, 0.264805
1656.28, 0.265016
1656.81, 0.265043
1657.34, 0.265069
1657.87, 0.265069
1658.4, 0.265122
1658.93, 0.265386
1659.46, 0.265439
1659.99, 0.265518
1660.52, 0.265703
1661.05, 0.265783
1661.59, 0.265783
1662.12, 0.265941
1662.65, 0.266179
1663.19, 0.266259
1663.72, 0.266259
1664.26, 0.266391
1664.79, 0.266576
1665.32, 0.266840
1665.86, 0.267131
1666.39, 0.267078
1666.93, 0.267078
1667.47, 0.267105
1668.0, 0.267316
1668.54, 0.267475
1669.08, 0.267633
1669.61, 0.267660
1670.15, 0.267713
1670.69, 0.267739
1671.23, 0.267898
1671.77, 0.268189
1672.31, 0.268268
1672.85, 0.268347
1673.39, 0.268612
1673.93, 0.268665
1674.47, 0.268612
1675.01, 0.268691
1675.55, 0.268876
1676.09, 0.269088
1676.64, 0.269167
1677.18, 0.269352
1677.72, 0.269537
1678.26, 0.269511
1678.81, 0.269511
1679.35, 0.269643
1679.89, 0.269801
1680.44, 0.269907
1680.98, 0.270039
1681.53, 0.270224
1682.07, 0.270330
1682.62, 0.270383
1683.17, 0.270462
1683.71, 0.270462
1684.26, 0.270621
1684.81, 0.270727
1685.36, 0.270938
1685.9, 0.271018
1686.45, 0.271150
1687.0, 0.271335
1687.55, 0.271441
1688.1, 0.271520
1688.65, 0.271678
1689.2, 0.271784
1689.75, 0.271864
1690.3, 0.272101
1690.85, 0.272154
1691.41, 0.272339
1691.96, 0.272551
1692.51, 0.272657
1693.06, 0.272630
1693.61, 0.272710
1694.17, 0.273000
1694.72, 0.273080
1695.28, 0.273238
1695.83, 0.273371
1696.39, 0.273476
1696.94, 0.273609
1697.5, 0.273661
1698.05, 0.273688
1698.61, 0.273873
1699.17, 0.273952
1699.72, 0.274031
1700.28, 0.274164
1700.84, 0.274217
1701.4, 0.274375
1701.95, 0.274640
1702.51, 0.274825
1703.07, 0.274878
1703.63, 0.274904
1704.19, 0.274983
1704.75, 0.275195
1705.31, 0.275380
1705.88, 0.275512
1706.44, 0.275459
1707.0, 0.275512
1707.56, 0.275644
1708.12, 0.275724
1708.69, 0.275961
1709.25, 0.276173
1709.81, 0.276147
1710.38, 0.276173
1710.94, 0.276411
1711.51, 0.276517
1712.07, 0.276675
1712.64, 0.276781
1713.2, 0.276940
1713.77, 0.277151
1714.34, 0.277178
1714.9, 0.277231
1715.47, 0.277178
1716.04, 0.277363
1716.61, 0.277548
1717.18, 0.277680
1717.74, 0.277786
1718.31, 0.277891
1718.88, 0.277971
1719.45, 0.278103
1720.02, 0.278209
1720.59, 0.278288
1721.17, 0.278447
1721.74, 0.278605
1722.31, 0.278685
1722.88, 0.278711
1723.45, 0.278764
1724.03, 0.278843
1724.6, 0.278975
1725.18, 0.279160
1725.75, 0.279213
1726.33, 0.279319
1726.9, 0.279504
1727.48, 0.279584
1728.05, 0.279689
1728.63, 0.279848
1729.2, 0.279874
1729.78, 0.280059
1730.36, 0.280139
1730.94, 0.280192
1731.51, 0.280297
1732.09, 0.280297
1732.67, 0.280403
1733.25, 0.280482
1733.83, 0.280535
1734.41, 0.280641
1734.99, 0.280826
1735.57, 0.280879
1736.15, 0.281038
1736.73, 0.281170
1737.32, 0.281249
1737.9, 0.281276
1738.48, 0.281408
1739.07, 0.281593
1739.65, 0.281619
1740.23, 0.281778
1740.82, 0.281963
1741.4, 0.281963
1741.99, 0.282042
1742.57, 0.282174
1743.16, 0.282333
1743.74, 0.282412
1744.33, 0.282465
1744.92, 0.282677
1745.51, 0.282650
1746.09, 0.282597
1746.68, 0.282783
1747.27, 0.282835
1747.86, 0.283020
1748.45, 0.283258
1749.04, 0.283258
1749.63, 0.283338
1750.22, 0.283523
1750.81, 0.283470
1751.4, 0.283496
1751.99, 0.283655
1752.59, 0.283814
1753.18, 0.283893
1753.77, 0.284025
1754.37, 0.284078
1754.96, 0.284237
1755.56, 0.284316
1756.15, 0.284527
1756.74, 0.284554
1757.34, 0.284527
1757.94, 0.284686
1758.53, 0.284765
1759.13, 0.284765
1759.73, 0.284818
1760.32, 0.284977
1760.92, 0.285136
1761.52, 0.285241
1762.12, 0.285347
1762.72, 0.285453
1763.32, 0.285611
1763.92, 0.285664
1764.52, 0.285717
1765.12, 0.285770
1765.72, 0.285929
1766.32, 0.286114
1766.92, 0.286378
1767.53, 0.286537
1768.13, 0.286484
1768.73, 0.286537
1769.34, 0.286590
1769.94, 0.286722
1770.55, 0.286801
1771.15, 0.286828
1771.76, 0.286933
1772.36, 0.287171
1772.97, 0.287277
1773.57, 0.287277
1774.18, 0.287409
1774.79, 0.287568
1775.4, 0.287621
1776.0, 0.287647
1776.61, 0.287859
1777.22, 0.287964
1777.83, 0.288070
1778.44, 0.288255
1779.05, 0.288440
1779.66, 0.288467
1780.27, 0.288493
1780.88, 0.288572
1781.5, 0.288599
1782.11, 0.288652
1782.72, 0.288758
1783.33, 0.288916
1783.95, 0.289101
1784.56, 0.289207
1785.18, 0.289286
1785.79, 0.289419
1786.41, 0.289445
1787.02, 0.289471
1787.64, 0.289577
1788.26, 0.289604
1788.87, 0.289709
1789.49, 0.289815
1790.11, 0.289921
1790.73, 0.290000
1791.35, 0.290053
1791.96, 0.290106
1792.58, 0.290185
1793.21, 0.290291
1793.83, 0.290397
1794.45, 0.290450
1795.07, 0.290582
1795.69, 0.290661
1796.31, 0.290793
1796.93, 0.291031
1797.56, 0.291058
1798.18, 0.291058
1798.8, 0.291084
1799.43, 0.291216
1800.05, 0.291296
1800.68, 0.291428
1801.3, 0.291481
1801.93, 0.291666
1802.56, 0.291719
1803.18, 0.291772
1803.81, 0.291798
1804.44, 0.291877
1805.07, 0.291877
1805.7, 0.291930
1806.33, 0.292036
1806.95, 0.292142
1807.58, 0.292221
1808.22, 0.292300
1808.85, 0.292353
1809.48, 0.292380
1810.11, 0.292432
1810.74, 0.292512
1811.38, 0.292618
1812.01, 0.292750
1812.64, 0.292776
1813.28, 0.292829
1813.91, 0.292961
1814.55, 0.293041
1815.18, 0.293173
1815.82, 0.293278
1816.45, 0.293331
1817.09, 0.293384
1817.73, 0.293358
1818.36, 0.293384
1819.0, 0.293358
1819.64, 0.293437
1820.28, 0.293464
1820.92, 0.293543
1821.56, 0.293701
1822.2, 0.293834
1822.84, 0.293913
1823.48, 0.293887
1824.12, 0.293966
1824.76, 0.294124
1825.41, 0.294151
1826.05, 0.294257
1826.69, 0.294468
1827.34, 0.294468
1827.98, 0.294468
1828.63, 0.294627
1829.27, 0.294653
1829.92, 0.294653
1830.56, 0.294680
1831.21, 0.294838
1831.86, 0.294891
1832.5, 0.294944
1833.15, 0.295050
1833.8, 0.295076
1834.45, 0.295076
1835.1, 0.295208
1835.75, 0.295288
1836.4, 0.295261
1837.05, 0.295367
1837.7, 0.295526
1838.35, 0.295711
1839.01, 0.295658
1839.66, 0.295631
1840.31, 0.295764
1840.96, 0.295817
1841.62, 0.295843
1842.27, 0.295922
1842.93, 0.296054
1843.58, 0.296240
1844.24, 0.296240
1844.9, 0.296240
1845.55, 0.296319
1846.21, 0.296240
1846.87, 0.296266
1847.53, 0.296530
1848.18, 0.296715
1848.84, 0.296795
1849.5, 0.296768
1850.16, 0.296821
1850.82, 0.296927
1851.48, 0.297033
1852.14, 0.297059
1852.81, 0.297086
1853.47, 0.297191
1854.13, 0.297244
1854.8, 0.297297
1855.46, 0.297323
1856.12, 0.297323
1856.79, 0.297456
1857.45, 0.297509
1858.12, 0.297535
1858.79, 0.297561
1859.45, 0.297561
1860.12, 0.297694
1860.79, 0.297773
1861.46, 0.297958
1862.12, 0.298037
1862.79, 0.298011
1863.46, 0.298011
1864.13, 0.298064
1864.8, 0.298143
1865.48, 0.298249
1866.15, 0.298249
1866.82, 0.298275
1867.49, 0.298249
1868.16, 0.298381
1868.84, 0.298434
1869.51, 0.298513
1870.19, 0.298593
1870.86, 0.298645
1871.54, 0.298751
1872.21, 0.298804
1872.89, 0.298751
1873.56, 0.298883
1874.24, 0.298963
1874.92, 0.298989
1875.6, 0.299068
1876.28, 0.299068
1876.96, 0.299174
1877.64, 0.299386
1878.32, 0.299412
1879.0, 0.299439
1879.68, 0.299518
1880.36, 0.299544
1881.04, 0.299597
1881.73, 0.299729
1882.41, 0.299782
1883.09, 0.299782
1883.78, 0.299809
1884.46, 0.299914
1885.15, 0.299994
1885.83, 0.299994
1886.52, 0.300073
1887.21, 0.300179
1887.89, 0.300205
1888.58, 0.300337
1889.27, 0.300337
1889.96, 0.300390
1890.65, 0.300655
1891.34, 0.300708
1892.03, 0.300655
1892.72, 0.300655
1893.41, 0.300708
1894.1, 0.300813
1894.79, 0.300972
1895.49, 0.301078
1896.18, 0.301078
1896.87, 0.301051
1897.57, 0.301131
1898.26, 0.301157
1898.96, 0.301263
1899.65, 0.301263
1900.35, 0.301369
