Database of Origin, USGS Spectral Database
Sample Description, See USGS database for additional info
Date Added,2016-08-10 02:45:38.319685

Data ID,USGS_gay02          
Sample ID, gaylussite_nmnh102876-2.8014
Mineral Name, gaylussite
Material Class,Carbonate

Wavelength
1457.45, 0.0864440
1457.86, 0.0862420
1458.27, 0.0859730
1458.68, 0.0856370
1459.09, 0.0853680
1459.5, 0.0856370
1459.91, 0.0861080
1460.32, 0.0851660
1460.74, 0.0845610
1461.15, 0.0844930
1461.56, 0.0839550
1461.97, 0.0822730
1462.39, 0.0822060
1462.8, 0.0828790
1463.21, 0.0826770
1463.62, 0.0824080
1464.04, 0.0836190
1464.45, 0.0831480
1464.86, 0.0824750
1465.28, 0.0824750
1465.69, 0.0813320
1466.11, 0.0814660
1466.52, 0.0818030
1466.94, 0.0821390
1467.35, 0.0811300
1467.77, 0.0799860
1468.18, 0.0797170
1468.6, 0.0800530
1469.02, 0.0794480
1469.43, 0.0791120
1469.85, 0.0795150
1470.27, 0.0795150
1470.68, 0.0801880
1471.1, 0.0803230
1471.52, 0.0801210
1471.94, 0.0790440
1472.35, 0.0781700
1472.77, 0.0777660
1473.19, 0.0780350
1473.61, 0.0787080
1474.03, 0.0783040
1474.45, 0.0768920
1474.87, 0.0764880
1475.29, 0.0757480
1475.71, 0.0754120
1476.13, 0.0762860
1476.55, 0.0763540
1476.97, 0.0762860
1477.39, 0.0764210
1477.81, 0.0762860
1478.23, 0.0755460
1478.65, 0.0746040
1479.07, 0.0744030
1479.5, 0.0752770
1479.92, 0.0750080
1480.34, 0.0746040
1480.76, 0.0748740
1481.19, 0.0741340
1481.61, 0.0739320
1482.03, 0.0741340
1482.46, 0.0740660
1482.88, 0.0739320
1483.31, 0.0732590
1483.73, 0.0733260
1484.16, 0.0738640
1484.58, 0.0733260
1485.01, 0.0722500
1485.43, 0.0716440
1485.86, 0.0715100
1486.28, 0.0715770
1486.71, 0.0717120
1487.14, 0.0718460
1487.56, 0.0715770
1487.99, 0.0712410
1488.42, 0.0710390
1488.84, 0.0710390
1489.27, 0.0705010
1489.7, 0.0703660
1490.13, 0.0709050
1490.56, 0.0711740
1490.98, 0.0709720
1491.41, 0.0707700
1491.84, 0.0701650
1492.27, 0.0701650
1492.7, 0.0705680
1493.13, 0.0698950
1493.56, 0.0694920
1493.99, 0.0694920
1494.42, 0.0694250
1494.85, 0.0695590
1495.29, 0.0695590
1495.72, 0.0695590
1496.15, 0.0690880
1496.58, 0.0690880
1497.01, 0.0692900
1497.44, 0.0691550
1497.88, 0.0688190
1498.31, 0.0685500
1498.74, 0.0684830
1499.18, 0.0680790
1499.61, 0.0682810
1500.04, 0.0682140
1500.48, 0.0680120
1500.91, 0.0683480
1501.35, 0.0685500
1501.78, 0.0678100
1502.22, 0.0678100
1502.65, 0.0676080
1503.09, 0.0670700
1503.53, 0.0670030
1503.96, 0.0672720
1504.4, 0.0673390
1504.83, 0.0669350
1505.27, 0.0671370
1505.71, 0.0679450
1506.15, 0.0676080
1506.58, 0.0670030
1507.02, 0.0672050
1507.46, 0.0668680
1507.9, 0.0666660
1508.34, 0.0670030
1508.78, 0.0667340
1509.21, 0.0661950
1509.66, 0.0662630
1510.09, 0.0665990
1510.53, 0.0666660
1510.97, 0.0660610
1511.42, 0.0655230
1511.86, 0.0651190
1512.3, 0.0648500
1512.74, 0.0652540
1513.18, 0.0660610
1513.62, 0.0655230
1514.06, 0.0647150
1514.51, 0.0652540
1514.95, 0.0653880
1515.39, 0.0649170
1515.83, 0.0649850
1516.28, 0.0649170
1516.72, 0.0641100
1517.16, 0.0638410
1517.61, 0.0643790
1518.05, 0.0643790
1518.5, 0.0639080
1518.94, 0.0642450
1519.39, 0.0646480
1519.83, 0.0643790
1520.28, 0.0640430
1520.73, 0.0639760
1521.17, 0.0639080
1521.62, 0.0639760
1522.07, 0.0638410
1522.51, 0.0635720
1522.96, 0.0633030
1523.41, 0.0630340
1523.85, 0.0626970
1524.3, 0.0631010
1524.75, 0.0633700
1525.2, 0.0632360
1525.65, 0.0635050
1526.1, 0.0632360
1526.55, 0.0629660
1527.0, 0.0631680
1527.45, 0.0632360
1527.9, 0.0630340
1528.35, 0.0626300
1528.8, 0.0627650
1529.25, 0.0623610
1529.7, 0.0618900
1530.15, 0.0620920
1530.6, 0.0619570
1531.05, 0.0614190
1531.51, 0.0614190
1531.96, 0.0615540
1532.41, 0.0621590
1532.87, 0.0622940
1533.32, 0.0618230
1533.77, 0.0613520
1534.23, 0.0614860
1534.68, 0.0615540
1535.14, 0.0610830
1535.59, 0.0610830
1536.05, 0.0609480
1536.5, 0.0605450
1536.96, 0.0608140
1537.41, 0.0611500
1537.87, 0.0607460
1538.32, 0.0604770
1538.78, 0.0604770
1539.24, 0.0602080
1539.7, 0.0600740
1540.15, 0.0604100
1540.61, 0.0604100
1541.07, 0.0603430
1541.53, 0.0604770
1541.98, 0.0601410
1542.44, 0.0598720
1542.9, 0.0600060
1543.36, 0.0600740
1543.82, 0.0600060
1544.28, 0.0596030
1544.74, 0.0591990
1545.2, 0.0596030
1545.66, 0.0596700
1546.12, 0.0595360
1546.59, 0.0594680
1547.05, 0.0594680
1547.51, 0.0598050
1547.97, 0.0600740
1548.43, 0.0598050
1548.9, 0.0588630
1549.36, 0.0589970
1549.82, 0.0594680
1550.29, 0.0590650
1550.75, 0.0589300
1551.21, 0.0591990
1551.68, 0.0588630
1552.14, 0.0586610
1552.61, 0.0587960
1553.07, 0.0585940
1553.54, 0.0581900
1554.0, 0.0585260
1554.47, 0.0589970
1554.93, 0.0589970
1555.4, 0.0587280
1555.87, 0.0584590
1556.34, 0.0583920
1556.8, 0.0581900
1557.27, 0.0583920
1557.74, 0.0587960
1558.21, 0.0587280
1558.68, 0.0584590
1559.14, 0.0581900
1559.61, 0.0579880
1560.08, 0.0582570
1560.55, 0.0585260
1561.02, 0.0588630
1561.49, 0.0585260
1561.96, 0.0581900
1562.43, 0.0581900
1562.9, 0.0583250
1563.38, 0.0583920
1563.85, 0.0585260
1564.32, 0.0583920
1564.79, 0.0581900
1565.26, 0.0583250
1565.74, 0.0588630
1566.21, 0.0585940
1566.68, 0.0579880
1567.16, 0.0579880
1567.63, 0.0584590
1568.1, 0.0583920
1568.58, 0.0579880
1569.05, 0.0577860
1569.53, 0.0579880
1570.0, 0.0581900
1570.48, 0.0580560
1570.96, 0.0577860
1571.43, 0.0578540
1571.91, 0.0579210
1572.39, 0.0577860
1572.86, 0.0580560
1573.34, 0.0582570
1573.82, 0.0581230
1574.3, 0.0579880
1574.77, 0.0577190
1575.25, 0.0575850
1575.73, 0.0573160
1576.21, 0.0573830
1576.69, 0.0571810
1577.17, 0.0572480
1577.65, 0.0574500
1578.13, 0.0576520
1578.61, 0.0583920
1579.09, 0.0582570
1579.57, 0.0575170
1580.05, 0.0573160
1580.54, 0.0574500
1581.02, 0.0575850
1581.5, 0.0578540
1581.98, 0.0581230
1582.47, 0.0577860
1582.95, 0.0577860
1583.43, 0.0579210
1583.92, 0.0577190
1584.4, 0.0577860
1584.88, 0.0583250
1585.37, 0.0585260
1585.85, 0.0580560
1586.34, 0.0580560
1586.82, 0.0583250
1587.31, 0.0581900
1587.8, 0.0582570
1588.28, 0.0585940
1588.77, 0.0583250
1589.26, 0.0580560
1589.74, 0.0579210
1590.23, 0.0577860
1590.72, 0.0577860
1591.21, 0.0581900
1591.7, 0.0582570
1592.19, 0.0581900
1592.67, 0.0585940
1593.16, 0.0585260
1593.65, 0.0582570
1594.14, 0.0584590
1594.63, 0.0586610
1595.12, 0.0583250
1595.61, 0.0577190
1596.11, 0.0575850
1596.6, 0.0577190
1597.09, 0.0581900
1597.58, 0.0587280
1598.08, 0.0589970
1598.57, 0.0588630
1599.06, 0.0587280
1599.55, 0.0587960
1600.05, 0.0587280
1600.54, 0.0585260
1601.04, 0.0584590
1601.53, 0.0585260
1602.03, 0.0584590
1602.52, 0.0581230
1603.02, 0.0584590
1603.51, 0.0586610
1604.01, 0.0585260
1604.5, 0.0587280
1605.0, 0.0589300
1605.5, 0.0588630
1606.0, 0.0586610
1606.49, 0.0583920
1606.99, 0.0583250
1607.49, 0.0586610
1607.99, 0.0587960
1608.49, 0.0587280
1608.99, 0.0585940
1609.49, 0.0584590
1609.99, 0.0583920
1610.49, 0.0583920
1610.99, 0.0583250
1611.49, 0.0581900
1611.99, 0.0583920
1612.49, 0.0587960
1612.99, 0.0587960
1613.49, 0.0584590
1614.0, 0.0583920
1614.5, 0.0586610
1615.0, 0.0589300
1615.51, 0.0588630
1616.01, 0.0586610
1616.51, 0.0587280
1617.02, 0.0586610
1617.52, 0.0583920
1618.03, 0.0585940
1618.53, 0.0586610
1619.04, 0.0586610
1619.54, 0.0587960
1620.05, 0.0589300
1620.55, 0.0587280
1621.06, 0.0587280
1621.57, 0.0584590
1622.08, 0.0584590
1622.58, 0.0589970
1623.09, 0.0589970
1623.6, 0.0586610
1624.11, 0.0584590
1624.62, 0.0586610
1625.13, 0.0587960
1625.64, 0.0587960
1626.15, 0.0584590
1626.66, 0.0582570
1627.17, 0.0583920
1627.68, 0.0585260
1628.19, 0.0585940
1628.7, 0.0585940
1629.21, 0.0585940
1629.72, 0.0587280
1630.24, 0.0590650
1630.75, 0.0588630
1631.26, 0.0589300
1631.78, 0.0589970
1632.29, 0.0586610
1632.8, 0.0582570
1633.32, 0.0581900
1633.83, 0.0583920
1634.35, 0.0583250
1634.86, 0.0583250
1635.38, 0.0582570
1635.9, 0.0584590
1636.41, 0.0586610
1636.93, 0.0581900
1637.45, 0.0581230
1637.96, 0.0586610
1638.48, 0.0587960
1639.0, 0.0584590
1639.52, 0.0582570
1640.04, 0.0585260
1640.56, 0.0583920
1641.08, 0.0577190
1641.59, 0.0575170
1642.11, 0.0578540
1642.63, 0.0581900
1643.16, 0.0580560
1643.68, 0.0581900
1644.2, 0.0582570
1644.72, 0.0581230
1645.24, 0.0578540
1645.76, 0.0577190
1646.29, 0.0575850
1646.81, 0.0575850
1647.33, 0.0575850
1647.86, 0.0575850
1648.38, 0.0576520
1648.9, 0.0577190
1649.43, 0.0573830
1649.95, 0.0573160
1650.48, 0.0574500
1651.0, 0.0574500
1651.53, 0.0575170
1652.06, 0.0579210
1652.58, 0.0577190
1653.11, 0.0572480
1653.64, 0.0567770
1654.17, 0.0567100
1654.69, 0.0569790
1655.22, 0.0571140
1655.75, 0.0569120
1656.28, 0.0567770
1656.81, 0.0565080
1657.34, 0.0565760
1657.87, 0.0567100
1658.4, 0.0565080
1658.93, 0.0565080
1659.46, 0.0562390
1659.99, 0.0563070
1660.52, 0.0564410
1661.05, 0.0562390
1661.59, 0.0559700
1662.12, 0.0561720
1662.65, 0.0562390
1663.19, 0.0561720
1663.72, 0.0562390
1664.26, 0.0563740
1664.79, 0.0562390
1665.32, 0.0561050
1665.86, 0.0559030
1666.39, 0.0554990
1666.93, 0.0553650
1667.47, 0.0557010
1668.0, 0.0559030
1668.54, 0.0552970
1669.08, 0.0547590
1669.61, 0.0550960
1670.15, 0.0552300
1670.69, 0.0550960
1671.23, 0.0552300
1671.77, 0.0553650
1672.31, 0.0552300
1672.85, 0.0552970
1673.39, 0.0552970
1673.93, 0.0551630
1674.47, 0.0548940
1675.01, 0.0547590
1675.55, 0.0545570
1676.09, 0.0544900
1676.64, 0.0544900
1677.18, 0.0545570
1677.72, 0.0542880
1678.26, 0.0540190
1678.81, 0.0538170
1679.35, 0.0535480
1679.89, 0.0537500
1680.44, 0.0537500
1680.98, 0.0537500
1681.53, 0.0539520
1682.07, 0.0540870
1682.62, 0.0540190
1683.17, 0.0538170
1683.71, 0.0539520
1684.26, 0.0540870
1684.81, 0.0537500
1685.36, 0.0536160
1685.9, 0.0534810
1686.45, 0.0534810
1687.0, 0.0535480
1687.55, 0.0534140
1688.1, 0.0532790
1688.65, 0.0533470
1689.2, 0.0532790
1689.75, 0.0531450
1690.3, 0.0530770
1690.85, 0.0528080
1691.41, 0.0528760
1691.96, 0.0528080
1692.51, 0.0525390
1693.06, 0.0525390
1693.61, 0.0528080
1694.17, 0.0529430
1694.72, 0.0525390
1695.28, 0.0525390
1695.83, 0.0526070
1696.39, 0.0525390
1696.94, 0.0522700
1697.5, 0.0518670
1698.05, 0.0517320
1698.61, 0.0518670
1699.17, 0.0520680
1699.72, 0.0522030
1700.28, 0.0521360
1700.84, 0.0521360
1701.4, 0.0520680
1701.95, 0.0517320
1702.51, 0.0517320
1703.07, 0.0518670
1703.63, 0.0518670
1704.19, 0.0518670
1704.75, 0.0520680
1705.31, 0.0519340
1705.88, 0.0515300
1706.44, 0.0513960
1707.0, 0.0513280
1707.56, 0.0511940
1708.12, 0.0512610
1708.69, 0.0511270
1709.25, 0.0509920
1709.81, 0.0507900
1710.38, 0.0505880
1710.94, 0.0507900
1711.51, 0.0507230
1712.07, 0.0507230
1712.64, 0.0507900
1713.2, 0.0508570
1713.77, 0.0507900
1714.34, 0.0505880
1714.9, 0.0505880
1715.47, 0.0504540
1716.04, 0.0502520
1716.61, 0.0499160
1717.18, 0.0496470
1717.74, 0.0496470
1718.31, 0.0496470
1718.88, 0.0495790
1719.45, 0.0497140
1720.02, 0.0499160
1720.59, 0.0501180
1721.17, 0.0500500
1721.74, 0.0498480
1722.31, 0.0495790
1722.88, 0.0495120
1723.45, 0.0495790
1724.03, 0.0493100
1724.6, 0.0493780
1725.18, 0.0493100
1725.75, 0.0490410
1726.33, 0.0490410
1726.9, 0.0489740
1727.48, 0.0489070
1728.05, 0.0487720
1728.63, 0.0489740
1729.2, 0.0489740
1729.78, 0.0487720
1730.36, 0.0487720
1730.94, 0.0485700
1731.51, 0.0487050
1732.09, 0.0487050
1732.67, 0.0487720
1733.25, 0.0487050
1733.83, 0.0483680
1734.41, 0.0483680
1734.99, 0.0486380
1735.57, 0.0485700
1736.15, 0.0482340
1736.73, 0.0478980
1737.32, 0.0478980
1737.9, 0.0479650
1738.48, 0.0480320
1739.07, 0.0480320
1739.65, 0.0476960
1740.23, 0.0474270
1740.82, 0.0474940
1741.4, 0.0478980
1741.99, 0.0480320
1742.57, 0.0478300
1743.16, 0.0477630
1743.74, 0.0476960
1744.33, 0.0476280
1744.92, 0.0474940
1745.51, 0.0476960
1746.09, 0.0475610
1746.68, 0.0471580
1747.27, 0.0472250
1747.86, 0.0473590
1748.45, 0.0471580
1749.04, 0.0472920
1749.63, 0.0472920
1750.22, 0.0472250
1750.81, 0.0470230
1751.4, 0.0469560
1751.99, 0.0470230
1752.59, 0.0470900
1753.18, 0.0471580
1753.77, 0.0470900
1754.37, 0.0468880
1754.96, 0.0470900
1755.56, 0.0472920
1756.15, 0.0469560
1756.74, 0.0466870
1757.34, 0.0466190
1757.94, 0.0467540
1758.53, 0.0469560
1759.13, 0.0466870
1759.73, 0.0465520
1760.32, 0.0466190
1760.92, 0.0467540
1761.52, 0.0469560
1762.12, 0.0465520
1762.72, 0.0460810
1763.32, 0.0462830
1763.92, 0.0467540
1764.52, 0.0467540
1765.12, 0.0464180
1765.72, 0.0463500
1766.32, 0.0464180
1766.92, 0.0464180
1767.53, 0.0463500
1768.13, 0.0463500
1768.73, 0.0464180
1769.34, 0.0464850
1769.94, 0.0464850
1770.55, 0.0463500
1771.15, 0.0461480
1771.76, 0.0458120
1772.36, 0.0459470
1772.97, 0.0461480
1773.57, 0.0459470
1774.18, 0.0456780
1774.79, 0.0457450
1775.4, 0.0457450
1776.0, 0.0458120
1776.61, 0.0458120
1777.22, 0.0456100
1777.83, 0.0456780
1778.44, 0.0457450
1779.05, 0.0458120
1779.66, 0.0460140
1780.27, 0.0457450
1780.88, 0.0453410
1781.5, 0.0453410
1782.11, 0.0455430
1782.72, 0.0456780
1783.33, 0.0456100
1783.95, 0.0456780
1784.56, 0.0459470
1785.18, 0.0458120
1785.79, 0.0456780
1786.41, 0.0455430
1787.02, 0.0456780
1787.64, 0.0455430
1788.26, 0.0455430
1788.87, 0.0456780
1789.49, 0.0457450
1790.11, 0.0458790
1790.73, 0.0458120
1791.35, 0.0455430
1791.96, 0.0452740
1792.58, 0.0452740
1793.21, 0.0456780
1793.83, 0.0457450
1794.45, 0.0457450
1795.07, 0.0456780
1795.69, 0.0454080
1796.31, 0.0453410
1796.93, 0.0456100
1797.56, 0.0459470
1798.18, 0.0460810
1798.8, 0.0458790
1799.43, 0.0456780
1800.05, 0.0456100
1800.68, 0.0457450
1801.3, 0.0459470
1801.93, 0.0458790
1802.56, 0.0457450
1803.18, 0.0459470
1803.81, 0.0458790
1804.44, 0.0458120
1805.07, 0.0459470
1805.7, 0.0460810
1806.33, 0.0459470
1806.95, 0.0459470
1807.58, 0.0461480
1808.22, 0.0460810
1808.85, 0.0459470
1809.48, 0.0460140
1810.11, 0.0462160
1810.74, 0.0462830
1811.38, 0.0464180
1812.01, 0.0462830
1812.64, 0.0460140
1813.28, 0.0462160
1813.91, 0.0464850
1814.55, 0.0464850
1815.18, 0.0462830
1815.82, 0.0462830
1816.45, 0.0463500
1817.09, 0.0463500
1817.73, 0.0466190
1818.36, 0.0468210
1819.0, 0.0468210
1819.64, 0.0467540
1820.28, 0.0466190
1820.92, 0.0464850
1821.56, 0.0465520
1822.2, 0.0466190
1822.84, 0.0465520
1823.48, 0.0466190
1824.12, 0.0464850
1824.76, 0.0464180
1825.41, 0.0466870
1826.05, 0.0467540
1826.69, 0.0468880
1827.34, 0.0470900
1827.98, 0.0469560
1828.63, 0.0469560
1829.27, 0.0470900
1829.92, 0.0471580
1830.56, 0.0471580
1831.21, 0.0474270
1831.86, 0.0472920
1832.5, 0.0471580
1833.15, 0.0474270
1833.8, 0.0474270
1834.45, 0.0472250
1835.1, 0.0473590
1835.75, 0.0474940
1836.4, 0.0474940
1837.05, 0.0472920
1837.7, 0.0470900
1838.35, 0.0472250
1839.01, 0.0473590
1839.66, 0.0474940
1840.31, 0.0474940
1840.96, 0.0473590
1841.62, 0.0473590
1842.27, 0.0472920
1842.93, 0.0472920
1843.58, 0.0474940
1844.24, 0.0476280
1844.9, 0.0475610
1845.55, 0.0474940
1846.21, 0.0474940
1846.87, 0.0473590
1847.53, 0.0473590
1848.18, 0.0474940
1848.84, 0.0474940
1849.5, 0.0476280
1850.16, 0.0476960
1850.82, 0.0476280
1851.48, 0.0475610
1852.14, 0.0474270
1852.81, 0.0475610
1853.47, 0.0473590
1854.13, 0.0473590
1854.8, 0.0478300
1855.46, 0.0477630
1856.12, 0.0472920
1856.79, 0.0470230
1857.45, 0.0470900
1858.12, 0.0470230
1858.79, 0.0469560
1859.45, 0.0470900
1860.12, 0.0468880
1860.79, 0.0468880
1861.46, 0.0468880
1862.12, 0.0468210
1862.79, 0.0466870
1863.46, 0.0464850
1864.13, 0.0467540
1864.8, 0.0467540
1865.48, 0.0467540
1866.15, 0.0466870
1866.82, 0.0464850
1867.49, 0.0462160
1868.16, 0.0460140
1868.84, 0.0461480
1869.51, 0.0460140
1870.19, 0.0460140
1870.86, 0.0462160
1871.54, 0.0460140
1872.21, 0.0458120
1872.89, 0.0456780
1873.56, 0.0455430
1874.24, 0.0454760
1874.92, 0.0453410
1875.6, 0.0454080
1876.28, 0.0454760
1876.96, 0.0453410
1877.64, 0.0452070
1878.32, 0.0451390
1879.0, 0.0452070
1879.68, 0.0450720
1880.36, 0.0448700
1881.04, 0.0448030
1881.73, 0.0446680
1882.41, 0.0445340
1883.09, 0.0442650
1883.78, 0.0441980
1884.46, 0.0438610
1885.15, 0.0439290
1885.83, 0.0441300
1886.52, 0.0437270
1887.21, 0.0439290
1887.89, 0.0437940
1888.58, 0.0437270
1889.27, 0.0435250
1889.96, 0.0433230
1890.65, 0.0433900
1891.34, 0.0430540
1892.03, 0.0429870
1892.72, 0.0429190
1893.41, 0.0427180
1894.1, 0.0425830
1894.79, 0.0424490
1895.49, 0.0425160
1896.18, 0.0422470
1896.87, 0.0419780
1897.57, 0.0421120
1898.26, 0.0420450
1898.96, 0.0418430
1899.65, 0.0415070
1900.35, 0.0413720
1901.05, 0.0415740
1901.74, 0.0412380
1902.44, 0.0411700
1903.14, 0.0412380
1903.84, 0.0411030
1904.54, 0.0409010
1905.24, 0.0410360
1905.94, 0.0411030
1906.64, 0.0409010
1907.34, 0.0405650
1908.04, 0.0403630
1908.75, 0.0400940
1909.45, 0.0400270
1910.15, 0.0400940
1910.86, 0.0399590
1911.56, 0.0397580
1912.27, 0.0395560
1912.97, 0.0396900
1913.68, 0.0395560
1914.39, 0.0395560
1915.09, 0.0396900
1915.8, 0.0396900
1916.51, 0.0394890
1917.22, 0.0393540
1917.93, 0.0394210
1918.64, 0.0392870
1919.35, 0.0391520
1920.06, 0.0392190
1920.77, 0.0391520
1921.48, 0.0390180
1922.19, 0.0389500
1922.91, 0.0388830
1923.62, 0.0390180
1924.33, 0.0388830
1925.05, 0.0387490
1925.76, 0.0385470
1926.48, 0.0386140
1927.19, 0.0386810
1927.91, 0.0384790
1928.63, 0.0383450
1929.35, 0.0382100
1930.07, 0.0381430
1930.78, 0.0380760
1931.5, 0.0379410
1932.22, 0.0378740
1932.94, 0.0379410
1933.66, 0.0380760
1934.39, 0.0379410
1935.11, 0.0378070
1935.83, 0.0379410
1936.55, 0.0380090
1937.28, 0.0380090
1938.0, 0.0378070
1938.73, 0.0376050
1939.45, 0.0374030
1940.18, 0.0375380
1940.9, 0.0377390
1941.63, 0.0376720
1942.36, 0.0376050
1943.09, 0.0374030
1943.81, 0.0373360
1944.54, 0.0371340
1945.27, 0.0369320
1946.0, 0.0370670
1946.73, 0.0372690
1947.47, 0.0371340
1948.2, 0.0368650
1948.93, 0.0370670
1949.66, 0.0371340
1950.4, 0.0368650
1951.13, 0.0368650
1951.86, 0.0367980
1952.6, 0.0367300
1953.34, 0.0367980
1954.07, 0.0366630
1954.81, 0.0365960
1955.55, 0.0363940
1956.29, 0.0364610
1957.02, 0.0365290
1957.76, 0.0365290
1958.5, 0.0366630
1959.24, 0.0367300
1959.98, 0.0365960
1960.72, 0.0363270
1961.47, 0.0363940
1962.21, 0.0363270
1962.95, 0.0363270
1963.7, 0.0363270
1964.44, 0.0361250
1965.18, 0.0359230
1965.93, 0.0360580
1966.67, 0.0361250
1967.42, 0.0361250
1968.17, 0.0361250
1968.92, 0.0359900
1969.66, 0.0359900
1970.41, 0.0360580
1971.16, 0.0362600
1971.91, 0.0363940
1972.66, 0.0363270
1973.41, 0.0361920
1974.16, 0.0359900
1974.92, 0.0360580
1975.67, 0.0360580
1976.42, 0.0361250
1977.18, 0.0362600
1977.93, 0.0362600
1978.69, 0.0363270
1979.44, 0.0361920
1980.2, 0.0361250
1980.95, 0.0361920
1981.71, 0.0362600
1982.47, 0.0361250
1983.23, 0.0360580
1983.99, 0.0361920
1984.74, 0.0363270
1985.51, 0.0362600
1986.27, 0.0362600
1987.03, 0.0363940
1987.79, 0.0363940
1988.55, 0.0363940
1989.32, 0.0364610
1990.08, 0.0363940
1990.84, 0.0364610
1991.61, 0.0364610
1992.37, 0.0364610
1993.14, 0.0363940
1993.9, 0.0363940
1994.67, 0.0363940
1995.44, 0.0362600
1996.21, 0.0362600
1996.98, 0.0363940
1997.75, 0.0365960
1998.52, 0.0367980
1999.29, 0.0368650
2000.06, 0.0366630
2000.83, 0.0365960
2001.6, 0.0366630
2002.38, 0.0367980
2003.15, 0.0367980
2003.93, 0.0366630
2004.7, 0.0365960
2005.48, 0.0366630
2006.25, 0.0365290
2007.03, 0.0362600
2007.81, 0.0361920
2008.58, 0.0366630
2009.36, 0.0368650
2010.14, 0.0367980
2010.92, 0.0367300
2011.7, 0.0367300
2012.48, 0.0367300
2013.26, 0.0366630
2014.05, 0.0366630
2014.83, 0.0367300
2015.61, 0.0366630
2016.4, 0.0367300
2017.18, 0.0367980
2017.97, 0.0367980
2018.75, 0.0369320
2019.54, 0.0369320
