Database of Origin, USGS Spectral Database
Sample Description, See USGS database for additional info
Date Added,2016-08-10 05:10:21.623755

Data ID,USGS_mon02          
Sample ID, monazite_hs255.14225
Mineral Name, monazite
Material Class,Phosphate

Wavelength
1506.15, 0.0749530
1506.58, 0.0746020
1507.02, 0.0742520
1507.46, 0.0737840
1507.9, 0.0735210
1508.34, 0.0729950
1508.78, 0.0726440
1509.21, 0.0725850
1509.66, 0.0721470
1510.09, 0.0717080
1510.53, 0.0712990
1510.97, 0.0709780
1511.42, 0.0705680
1511.86, 0.0702170
1512.3, 0.0697500
1512.74, 0.0694870
1513.18, 0.0689900
1513.62, 0.0688140
1514.06, 0.0688440
1514.51, 0.0684640
1514.95, 0.0681710
1515.39, 0.0682590
1515.83, 0.0680830
1516.28, 0.0679080
1516.72, 0.0672070
1517.16, 0.0663880
1517.61, 0.0660660
1518.05, 0.0659490
1518.5, 0.0656860
1518.94, 0.0652190
1519.39, 0.0650720
1519.83, 0.0648970
1520.28, 0.0644590
1520.73, 0.0644000
1521.17, 0.0642830
1521.62, 0.0636990
1522.07, 0.0630850
1522.51, 0.0628800
1522.96, 0.0628510
1523.41, 0.0627340
1523.85, 0.0626750
1524.3, 0.0623250
1524.75, 0.0617980
1525.2, 0.0615350
1525.65, 0.0617690
1526.1, 0.0616520
1526.55, 0.0616230
1527.0, 0.0614480
1527.45, 0.0608340
1527.9, 0.0607170
1528.35, 0.0609510
1528.8, 0.0609800
1529.25, 0.0608630
1529.7, 0.0606880
1530.15, 0.0603660
1530.6, 0.0598980
1531.05, 0.0594310
1531.51, 0.0591670
1531.96, 0.0593140
1532.41, 0.0594600
1532.87, 0.0594600
1533.32, 0.0593140
1533.77, 0.0591380
1534.23, 0.0594010
1534.68, 0.0594890
1535.14, 0.0592260
1535.59, 0.0592550
1536.05, 0.0590510
1536.5, 0.0585830
1536.96, 0.0583490
1537.41, 0.0585240
1537.87, 0.0587870
1538.32, 0.0587580
1538.78, 0.0584070
1539.24, 0.0584660
1539.7, 0.0585540
1540.15, 0.0584950
1540.61, 0.0582610
1541.07, 0.0585540
1541.53, 0.0584660
1541.98, 0.0583490
1542.44, 0.0582030
1542.9, 0.0583490
1543.36, 0.0584370
1543.82, 0.0586700
1544.28, 0.0586120
1544.74, 0.0589040
1545.2, 0.0591970
1545.66, 0.0591970
1546.12, 0.0590210
1546.59, 0.0591380
1547.05, 0.0591670
1547.51, 0.0593430
1547.97, 0.0596350
1548.43, 0.0600150
1548.9, 0.0603370
1549.36, 0.0605120
1549.82, 0.0608040
1550.29, 0.0613310
1550.75, 0.0613310
1551.21, 0.0617980
1551.68, 0.0620620
1552.14, 0.0621490
1552.61, 0.0624710
1553.07, 0.0630550
1553.54, 0.0632310
1554.0, 0.0634350
1554.47, 0.0636400
1554.93, 0.0640200
1555.4, 0.0640790
1555.87, 0.0645760
1556.34, 0.0651890
1556.8, 0.0655400
1557.27, 0.0658910
1557.74, 0.0663000
1558.21, 0.0664760
1558.68, 0.0668850
1559.14, 0.0671770
1559.61, 0.0672940
1560.08, 0.0674700
1560.55, 0.0679080
1561.02, 0.0684050
1561.49, 0.0688140
1561.96, 0.0690480
1562.43, 0.0693700
1562.9, 0.0695450
1563.38, 0.0697790
1563.85, 0.0699250
1564.32, 0.0704510
1564.79, 0.0708020
1565.26, 0.0712700
1565.74, 0.0715620
1566.21, 0.0720590
1566.68, 0.0722930
1567.16, 0.0724390
1567.63, 0.0726440
1568.1, 0.0731120
1568.58, 0.0732580
1569.05, 0.0734040
1569.53, 0.0735790
1570.0, 0.0742810
1570.48, 0.0746020
1570.96, 0.0745440
1571.43, 0.0748660
1571.91, 0.0755670
1572.39, 0.0758590
1572.86, 0.0762390
1573.34, 0.0762690
1573.82, 0.0764150
1574.3, 0.0766780
1574.77, 0.0772330
1575.25, 0.0774670
1575.73, 0.0778770
1576.21, 0.0780810
1576.69, 0.0784320
1577.17, 0.0785780
1577.65, 0.0788410
1578.13, 0.0789870
1578.61, 0.0791920
1579.09, 0.0793090
1579.57, 0.0800110
1580.05, 0.0802740
1580.54, 0.0806240
1581.02, 0.0807410
1581.5, 0.0809460
1581.98, 0.0810340
1582.47, 0.0813840
1582.95, 0.0817640
1583.43, 0.0823490
1583.92, 0.0827580
1584.4, 0.0831090
1584.88, 0.0830510
1585.37, 0.0835180
1585.85, 0.0842200
1586.34, 0.0847170
1586.82, 0.0847750
1587.31, 0.0852140
1587.8, 0.0856520
1588.28, 0.0861490
1588.77, 0.0864130
1589.26, 0.0869090
1589.74, 0.0873480
1590.23, 0.0877280
1590.72, 0.0882250
1591.21, 0.0886930
1591.7, 0.0888100
1592.19, 0.0893070
1592.67, 0.0899200
1593.16, 0.0906510
1593.65, 0.0911190
1594.14, 0.0917620
1594.63, 0.0921710
1595.12, 0.0925510
1595.61, 0.0928440
1596.11, 0.0936040
1596.6, 0.0940720
1597.09, 0.0944810
1597.58, 0.0950070
1598.08, 0.0957380
1598.57, 0.0962350
1599.06, 0.0967900
1599.55, 0.0972290
1600.05, 0.0976670
1600.54, 0.0981640
1601.04, 0.0989530
1601.53, 0.0993340
1602.03, 0.100006
1602.52, 0.100707
1603.02, 0.101438
1603.51, 0.101848
1604.01, 0.102374
1604.5, 0.102754
1605.0, 0.103543
1605.5, 0.104157
1606.0, 0.104595
1606.49, 0.104975
1606.99, 0.105677
1607.49, 0.106203
1607.99, 0.106993
1608.49, 0.107489
1608.99, 0.107840
1609.49, 0.108250
1609.99, 0.108893
1610.49, 0.109331
1610.99, 0.109565
1611.49, 0.110033
1611.99, 0.110939
1612.49, 0.111377
1612.99, 0.111991
1613.49, 0.112518
1614.0, 0.113161
1614.5, 0.113541
1615.0, 0.113921
1615.51, 0.114242
1616.01, 0.114915
1616.51, 0.115382
1617.02, 0.115967
1617.52, 0.116406
1618.03, 0.116727
1618.53, 0.116961
1619.04, 0.117604
1619.54, 0.118189
1620.05, 0.118481
1620.55, 0.118832
1621.06, 0.119504
1621.57, 0.119855
1622.08, 0.120206
1622.58, 0.120644
1623.09, 0.121258
1623.6, 0.121463
1624.11, 0.121901
1624.62, 0.122486
1625.13, 0.122808
1625.64, 0.123304
1626.15, 0.123772
1626.66, 0.124094
1627.17, 0.124678
1627.68, 0.125029
1628.19, 0.125380
1628.7, 0.125906
1629.21, 0.126696
1629.72, 0.127046
1630.24, 0.127368
1630.75, 0.127689
1631.26, 0.128216
1631.78, 0.128713
1632.29, 0.129063
1632.8, 0.129648
1633.32, 0.130379
1633.83, 0.130759
1634.35, 0.131139
1634.86, 0.131314
1635.38, 0.131928
1635.9, 0.132367
1636.41, 0.132864
1636.93, 0.133273
1637.45, 0.133945
1637.96, 0.134150
1638.48, 0.134618
1639.0, 0.135115
1639.52, 0.135524
1640.04, 0.135904
1640.56, 0.136459
1641.08, 0.136722
1641.59, 0.137073
1642.11, 0.137541
1642.63, 0.138096
1643.16, 0.138359
1643.68, 0.138652
1644.2, 0.138827
1644.72, 0.139236
1645.24, 0.140026
1645.76, 0.140640
1646.29, 0.140610
1646.81, 0.140990
1647.33, 0.141487
1647.86, 0.142072
1648.38, 0.142306
1648.9, 0.142511
1649.43, 0.142657
1649.95, 0.142891
1650.48, 0.143154
1651.0, 0.143768
1651.53, 0.144118
1652.06, 0.144381
1652.58, 0.144440
1653.11, 0.144849
1653.64, 0.145025
1654.17, 0.145229
1654.69, 0.145434
1655.22, 0.145668
1655.75, 0.145960
1656.28, 0.146311
1656.81, 0.146574
1657.34, 0.146954
1657.87, 0.147159
1658.4, 0.147509
1658.93, 0.147480
1659.46, 0.147685
1659.99, 0.147977
1660.52, 0.148416
1661.05, 0.148562
1661.59, 0.148737
1662.12, 0.148913
1662.65, 0.149205
1663.19, 0.149263
1663.72, 0.149410
1664.26, 0.149468
1664.79, 0.149643
1665.32, 0.149702
1665.86, 0.149906
1666.39, 0.149936
1666.93, 0.150228
1667.47, 0.150374
1668.0, 0.150345
1668.54, 0.150374
1669.08, 0.150813
1669.61, 0.151047
1670.15, 0.151193
1670.69, 0.151339
1671.23, 0.151602
1671.77, 0.151631
1672.31, 0.151836
1672.85, 0.151865
1673.39, 0.152157
1673.93, 0.152362
1674.47, 0.152596
1675.01, 0.152625
1675.55, 0.152859
1676.09, 0.153093
1676.64, 0.153268
1677.18, 0.153239
1677.72, 0.153356
1678.26, 0.153356
1678.81, 0.153648
1679.35, 0.153736
1679.89, 0.153853
1680.44, 0.154058
1680.98, 0.154087
1681.53, 0.153941
1682.07, 0.153999
1682.62, 0.154028
1683.17, 0.154087
1683.71, 0.154116
1684.26, 0.154233
1684.81, 0.154204
1685.36, 0.154496
1685.9, 0.154555
1686.45, 0.154525
1687.0, 0.154467
1687.55, 0.154438
1688.1, 0.154525
1688.65, 0.154701
1689.2, 0.154730
1689.75, 0.155081
1690.3, 0.155110
1690.85, 0.155022
1691.41, 0.154905
1691.96, 0.155110
1692.51, 0.155315
1693.06, 0.155519
1693.61, 0.155607
1694.17, 0.156016
1694.72, 0.156192
1695.28, 0.156308
1695.83, 0.156279
1696.39, 0.156484
1696.94, 0.156630
1697.5, 0.156922
1698.05, 0.157039
1698.61, 0.157302
1699.17, 0.157507
1699.72, 0.157887
1700.28, 0.158238
1700.84, 0.158618
1701.4, 0.158735
1701.95, 0.158852
1702.51, 0.159086
1703.07, 0.159524
1703.63, 0.159758
1704.19, 0.159904
1704.75, 0.160138
1705.31, 0.160606
1705.88, 0.160810
1706.44, 0.161073
1707.0, 0.161220
1707.56, 0.161337
1708.12, 0.161161
1708.69, 0.161015
1709.25, 0.160869
1709.81, 0.160927
1710.38, 0.160781
1710.94, 0.160489
1711.51, 0.160050
1712.07, 0.159729
1712.64, 0.159495
1713.2, 0.159261
1713.77, 0.158998
1714.34, 0.159056
1714.9, 0.159086
1715.47, 0.159086
1716.04, 0.159319
1716.61, 0.159846
1717.18, 0.160226
1717.74, 0.160840
1718.31, 0.161307
1718.88, 0.161775
1719.45, 0.162243
1720.02, 0.162974
1720.59, 0.163529
1721.17, 0.163997
1721.74, 0.164318
1722.31, 0.164961
1722.88, 0.165488
1723.45, 0.165985
1724.03, 0.166394
1724.6, 0.166891
1725.18, 0.167271
1725.75, 0.167534
1726.33, 0.167709
1726.9, 0.168002
1727.48, 0.168323
1728.05, 0.168820
1728.63, 0.168908
1729.2, 0.169083
1729.78, 0.169171
1730.36, 0.169405
1730.94, 0.169726
1731.51, 0.170106
1732.09, 0.170369
1732.67, 0.170633
1733.25, 0.170779
1733.83, 0.171130
1734.41, 0.171305
1734.99, 0.171480
1735.57, 0.171627
1736.15, 0.172007
1736.73, 0.172387
1737.32, 0.172825
1737.9, 0.173000
1738.48, 0.173176
1739.07, 0.173293
1739.65, 0.173527
1740.23, 0.173731
1740.82, 0.174111
1741.4, 0.174404
1741.99, 0.174754
1742.57, 0.174959
1743.16, 0.175398
1743.74, 0.175515
1744.33, 0.175865
1744.92, 0.176041
1745.51, 0.176275
1746.09, 0.176479
1746.68, 0.176772
1747.27, 0.176976
1747.86, 0.177356
1748.45, 0.177707
1749.04, 0.178175
1749.63, 0.178233
1750.22, 0.178292
1750.81, 0.178555
1751.4, 0.178847
1751.99, 0.178964
1752.59, 0.179227
1753.18, 0.179315
1753.77, 0.179432
1754.37, 0.179636
1754.96, 0.180016
1755.56, 0.180133
1756.15, 0.180426
1756.74, 0.180426
1757.34, 0.180484
1757.94, 0.180747
1758.53, 0.181244
1759.13, 0.181244
1759.73, 0.181303
1760.32, 0.181420
1760.92, 0.181624
1761.52, 0.181770
1762.12, 0.181975
1762.72, 0.182033
1763.32, 0.182209
1763.92, 0.182326
1764.52, 0.182472
1765.12, 0.182472
1765.72, 0.182589
1766.32, 0.182706
1766.92, 0.182969
1767.53, 0.182969
1768.13, 0.183115
1768.73, 0.183261
1769.34, 0.183466
1769.94, 0.183583
1770.55, 0.183583
1771.15, 0.183437
1771.76, 0.183524
1772.36, 0.183466
1772.97, 0.183641
1773.57, 0.183846
1774.18, 0.184021
1774.79, 0.183934
1775.4, 0.184109
1776.0, 0.184314
1776.61, 0.184401
1777.22, 0.184284
1777.83, 0.184401
1778.44, 0.184314
1779.05, 0.184431
1779.66, 0.184606
1780.27, 0.184781
1780.88, 0.184664
1781.5, 0.184664
1782.11, 0.184606
1782.72, 0.184811
1783.33, 0.184898
1783.95, 0.184898
1784.56, 0.184781
1785.18, 0.184928
1785.79, 0.184898
1786.41, 0.184986
1787.02, 0.184986
1787.64, 0.185161
1788.26, 0.185161
1788.87, 0.185074
1789.49, 0.185074
1790.11, 0.185220
1790.73, 0.185308
1791.35, 0.185366
1791.96, 0.185308
1792.58, 0.185483
1793.21, 0.185454
1793.83, 0.185395
1794.45, 0.185366
1795.07, 0.185424
1795.69, 0.185337
1796.31, 0.185424
1796.93, 0.185541
1797.56, 0.185688
1798.18, 0.185571
1798.8, 0.185541
1799.43, 0.185512
1800.05, 0.185483
1800.68, 0.185366
1801.3, 0.185512
1801.93, 0.185600
1802.56, 0.185658
1803.18, 0.185658
1803.81, 0.185629
1804.44, 0.185424
1805.07, 0.185424
1805.7, 0.185483
1806.33, 0.185571
1806.95, 0.185483
1807.58, 0.185512
1808.22, 0.185512
1808.85, 0.185541
1809.48, 0.185454
1810.11, 0.185395
1810.74, 0.185191
1811.38, 0.185249
1812.01, 0.185337
1812.64, 0.185308
1813.28, 0.185308
1813.91, 0.185337
1814.55, 0.185074
1815.18, 0.184957
1815.82, 0.184898
1816.45, 0.184986
1817.09, 0.185074
1817.73, 0.185044
1818.36, 0.184986
1819.0, 0.184928
1819.64, 0.184664
1820.28, 0.184635
1820.92, 0.184840
1821.56, 0.184840
1822.2, 0.184781
1822.84, 0.184811
1823.48, 0.184723
1824.12, 0.184606
1824.76, 0.184431
1825.41, 0.184138
1826.05, 0.183992
1826.69, 0.184226
1827.34, 0.184109
1827.98, 0.183934
1828.63, 0.183963
1829.27, 0.184021
1829.92, 0.183758
1830.56, 0.183583
1831.21, 0.183495
1831.86, 0.183524
1832.5, 0.183437
1833.15, 0.183524
1833.8, 0.183378
1834.45, 0.183057
1835.1, 0.182969
1835.75, 0.182910
1836.4, 0.182764
1837.05, 0.182706
1837.7, 0.182472
1838.35, 0.182589
1839.01, 0.182238
1839.66, 0.182092
1840.31, 0.182150
1840.96, 0.181917
1841.62, 0.181566
1842.27, 0.181536
1842.93, 0.181478
1843.58, 0.181507
1844.24, 0.181449
1844.9, 0.181449
1845.55, 0.181215
1846.21, 0.180776
1846.87, 0.180338
1847.53, 0.180309
1848.18, 0.180221
1848.84, 0.180543
1849.5, 0.180484
1850.16, 0.180279
1850.82, 0.180046
1851.48, 0.179870
1852.14, 0.179490
1852.81, 0.179344
1853.47, 0.179022
1854.13, 0.178993
1854.8, 0.178935
1855.46, 0.178876
1856.12, 0.178496
1856.79, 0.178379
1857.45, 0.178379
1858.12, 0.178292
1858.79, 0.177853
1859.45, 0.177502
1860.12, 0.177473
1860.79, 0.177415
1861.46, 0.177298
1862.12, 0.177239
1862.79, 0.177035
1863.46, 0.176801
1864.13, 0.176538
1864.8, 0.176421
1865.48, 0.176216
1866.15, 0.176099
1866.82, 0.175573
1867.49, 0.175251
1868.16, 0.175193
1868.84, 0.175076
1869.51, 0.174813
1870.19, 0.174374
1870.86, 0.174082
1871.54, 0.174287
1872.21, 0.173731
1872.89, 0.173234
1873.56, 0.173264
1874.24, 0.173234
1874.92, 0.172884
1875.6, 0.172679
1876.28, 0.172182
1876.96, 0.171977
1877.64, 0.171919
1878.32, 0.171656
1879.0, 0.171217
1879.68, 0.170983
1880.36, 0.170720
1881.04, 0.170428
1881.73, 0.170136
1882.41, 0.169902
1883.09, 0.169463
1883.78, 0.169171
1884.46, 0.168966
1885.15, 0.168791
1885.83, 0.168469
1886.52, 0.168148
1887.21, 0.167885
1887.89, 0.167622
1888.58, 0.167300
1889.27, 0.167008
1889.96, 0.166628
1890.65, 0.166423
1891.34, 0.166014
1892.03, 0.165692
1892.72, 0.165312
1893.41, 0.165108
1894.1, 0.164844
1894.79, 0.164581
1895.49, 0.164201
1896.18, 0.163821
1896.87, 0.163412
1897.57, 0.163149
1898.26, 0.162857
1898.96, 0.162301
1899.65, 0.161892
1900.35, 0.161746
1901.05, 0.161541
1901.74, 0.161220
1902.44, 0.160723
1903.14, 0.160576
1903.84, 0.160284
1904.54, 0.159816
1905.24, 0.159349
1905.94, 0.159086
1906.64, 0.158764
1907.34, 0.158735
1908.04, 0.158413
1908.75, 0.158179
1909.45, 0.157887
1910.15, 0.157449
1910.86, 0.157069
1911.56, 0.156922
1912.27, 0.156689
1912.97, 0.156250
1913.68, 0.156045
1914.39, 0.155987
1915.09, 0.155607
1915.8, 0.155285
1916.51, 0.155051
1917.22, 0.154847
1917.93, 0.154613
1918.64, 0.154350
1919.35, 0.153853
1920.06, 0.153561
1920.77, 0.153444
1921.48, 0.153385
1922.19, 0.153034
1922.91, 0.152742
1923.62, 0.152333
1924.33, 0.152187
1925.05, 0.151953
1925.76, 0.151660
1926.48, 0.151280
1927.19, 0.151047
1927.91, 0.150637
1928.63, 0.150462
1929.35, 0.150228
1930.07, 0.150053
1930.78, 0.149848
1931.5, 0.149585
1932.22, 0.149234
1932.94, 0.148971
1933.66, 0.148649
1934.39, 0.148386
1935.11, 0.148065
1935.83, 0.147860
1936.55, 0.147539
1937.28, 0.147392
1938.0, 0.147042
1938.73, 0.146749
1939.45, 0.146486
1940.18, 0.146369
1940.9, 0.146165
1941.63, 0.145989
1942.36, 0.145755
1943.09, 0.145609
1943.81, 0.145463
1944.54, 0.145317
1945.27, 0.145112
1946.0, 0.144966
1946.73, 0.144820
1947.47, 0.144791
1948.2, 0.144557
1948.93, 0.144411
1949.66, 0.144265
1950.4, 0.144235
1951.13, 0.144089
1951.86, 0.144031
1952.6, 0.143914
1953.34, 0.143884
1954.07, 0.143797
1954.81, 0.143768
1955.55, 0.143680
1956.29, 0.143592
1957.02, 0.143504
1957.76, 0.143563
1958.5, 0.143534
1959.24, 0.143621
1959.98, 0.143651
1960.72, 0.143621
1961.47, 0.143504
1962.21, 0.143651
1962.95, 0.143651
1963.7, 0.143709
1964.44, 0.143768
1965.18, 0.143884
1965.93, 0.143855
1966.67, 0.144031
1967.42, 0.144118
1968.17, 0.144177
1968.92, 0.144235
1969.66, 0.144381
1970.41, 0.144615
1971.16, 0.144908
1971.91, 0.144995
1972.66, 0.145200
1973.41, 0.145375
1974.16, 0.145551
1974.92, 0.145755
1975.67, 0.146018
1976.42, 0.146223
1977.18, 0.146515
1977.93, 0.146720
1978.69, 0.147012
1979.44, 0.147246
1980.2, 0.147568
1980.95, 0.147802
1981.71, 0.148094
1982.47, 0.148299
1983.23, 0.148533
1983.99, 0.148825
1984.74, 0.149234
1985.51, 0.149351
1986.27, 0.149585
1987.03, 0.149906
1987.79, 0.150199
1988.55, 0.150403
1989.32, 0.150637
1990.08, 0.150754
1990.84, 0.150988
1991.61, 0.151105
1992.37, 0.151310
1993.14, 0.151514
1993.9, 0.151660
1994.67, 0.151777
1995.44, 0.151982
1996.21, 0.152070
1996.98, 0.152304
1997.75, 0.152420
1998.52, 0.152508
1999.29, 0.152537
2000.06, 0.152654
2000.83, 0.152713
2001.6, 0.152830
2002.38, 0.152771
2003.15, 0.152830
2003.93, 0.152859
2004.7, 0.152947
2005.48, 0.152888
2006.25, 0.153034
2007.03, 0.153181
2007.81, 0.153181
2008.58, 0.153122
2009.36, 0.153356
2010.14, 0.153473
2010.92, 0.153561
2011.7, 0.153648
2012.48, 0.153824
2013.26, 0.153941
2014.05, 0.154145
2014.83, 0.154204
2015.61, 0.154321
2016.4, 0.154555
2017.18, 0.154905
2017.97, 0.155168
2018.75, 0.155490
2019.54, 0.155753
2020.32, 0.156075
2021.11, 0.156279
2021.9, 0.156601
2022.69, 0.156776
2023.48, 0.157069
2024.27, 0.157419
2025.06, 0.157799
2025.85, 0.158121
2026.64, 0.158472
2027.44, 0.158764
2028.23, 0.159086
2029.02, 0.159407
2029.82, 0.159787
2030.61, 0.159992
2031.41, 0.160226
2032.2, 0.160489
2033.0, 0.160840
2033.8, 0.161161
2034.6, 0.161600
2035.4, 0.161863
2036.2, 0.162155
2037.0, 0.162389
2037.8, 0.162652
2038.6, 0.162886
2039.4, 0.163237
2040.2, 0.163383
2041.01, 0.163617
2041.81, 0.163851
2042.61, 0.164231
2043.42, 0.164377
2044.22, 0.164581
2045.03, 0.164757
2045.84, 0.164991
2046.65, 0.165195
2047.46, 0.165458
2048.26, 0.165692
2049.07, 0.165926
2049.88, 0.166072
2050.69, 0.166248
2051.51, 0.166394
2052.32, 0.166715
2053.13, 0.166862
2053.94, 0.167125
2054.76, 0.167300
2055.57, 0.167563
2056.39, 0.167709
2057.2, 0.167885
2058.02, 0.168031
2058.84, 0.168323
2059.66, 0.168499
2060.48, 0.168616
2061.29, 0.168762
2062.11, 0.168908
2062.94, 0.169054
2063.76, 0.169229
2064.58, 0.169288
2065.4, 0.169434
2066.22, 0.169493
2067.05, 0.169726
2067.87, 0.169873
2068.7, 0.170048
2069.52, 0.170019
2070.35, 0.170136
2071.18, 0.170340
2072.0, 0.170545
2072.83, 0.170603
2073.66, 0.170779
2074.49, 0.170866
2075.32, 0.170837
2076.15, 0.170837
2076.98, 0.171100
2077.82, 0.171217
2078.65, 0.171334
2079.48, 0.171363
2080.32, 0.171480
2081.15, 0.171510
2081.99, 0.171627
2082.83, 0.171685
2083.66, 0.171831
2084.5, 0.171890
2085.34, 0.172065
2086.18, 0.172153
2087.02, 0.172270
2087.86, 0.172328
2088.7, 0.172416
2089.54, 0.172504
2090.39, 0.172650
2091.23, 0.172796
2092.07, 0.172913
2092.92, 0.173000
2093.76, 0.173117
2094.61, 0.173117
2095.45, 0.173205
2096.3, 0.173293
2097.15, 0.173468
2098.0, 0.173527
2098.85, 0.173673
2099.7, 0.173673
2100.55, 0.173819
2101.4, 0.173819
2102.25, 0.173877
2103.1, 0.173907
2103.96, 0.174053
2104.81, 0.174141
2105.67, 0.174257
2106.52, 0.174287
2107.38, 0.174491
2108.24, 0.174638
2109.09, 0.174754
2109.95, 0.174696
2110.81, 0.174667
2111.67, 0.174667
2112.53, 0.174725
2113.39, 0.174871
2114.25, 0.175076
2115.12, 0.175105
2115.98, 0.175134
2116.84, 0.175164
2117.71, 0.175310
2118.58, 0.175398
2119.44, 0.175456
2120.31, 0.175368
2121.18, 0.175427
2122.04, 0.175485
2122.91, 0.175661
2123.78, 0.175631
2124.65, 0.175661
2125.52, 0.175602
2126.4, 0.175807
2127.27, 0.175836
2128.14, 0.175836
2129.02, 0.175865
2129.89, 0.175924
2130.77, 0.175982
2131.64, 0.176041
2132.52, 0.175924
2133.4, 0.176041
2134.27, 0.176070
2135.15, 0.176128
2136.03, 0.176158
2136.91, 0.176275
2137.79, 0.176245
2138.68, 0.176304
2139.56, 0.176275
2140.44, 0.176245
2141.33, 0.176216
2142.21, 0.176245
2143.1, 0.176158
2143.99, 0.176187
2144.87, 0.176216
2145.76, 0.176245
2146.65, 0.176158
2147.54, 0.176128
2148.43, 0.176158
2149.32, 0.176187
2150.21, 0.176011
2151.1, 0.176070
2151.99, 0.176011
