Database of Origin, USGS Spectral Database
Sample Description, See USGS database for additional info
Date Added,2016-08-10 02:55:18.295053

Data ID,USGS_hem08          
Sample ID, hematite_gds69.9434
Mineral Name, hematite
Material Class,Oxide

Wavelength
1434.07, 0.131721
1434.46, 0.131479
1434.86, 0.131540
1435.26, 0.131660
1435.66, 0.131721
1436.05, 0.131902
1436.45, 0.132144
1436.85, 0.131660
1437.25, 0.131358
1437.65, 0.131540
1438.05, 0.131902
1438.44, 0.132205
1438.84, 0.132205
1439.24, 0.132023
1439.64, 0.131902
1440.04, 0.132023
1440.44, 0.132205
1440.84, 0.132023
1441.24, 0.131842
1441.65, 0.131963
1442.05, 0.131781
1442.45, 0.131358
1442.85, 0.131358
1443.25, 0.131963
1443.65, 0.132325
1444.05, 0.132205
1444.46, 0.132325
1444.86, 0.132386
1445.26, 0.132205
1445.67, 0.131963
1446.07, 0.131781
1446.47, 0.132023
1446.88, 0.131902
1447.28, 0.132023
1447.68, 0.132325
1448.09, 0.132144
1448.49, 0.132023
1448.9, 0.131781
1449.3, 0.131842
1449.71, 0.131963
1450.11, 0.131963
1450.52, 0.131781
1450.93, 0.131660
1451.33, 0.131660
1451.74, 0.131781
1452.14, 0.131902
1452.55, 0.132023
1452.96, 0.131842
1453.36, 0.131781
1453.77, 0.131902
1454.18, 0.131902
1454.59, 0.131842
1455.0, 0.131902
1455.41, 0.131902
1455.81, 0.131781
1456.22, 0.131540
1456.63, 0.131600
1457.04, 0.131600
1457.45, 0.131842
1457.86, 0.132023
1458.27, 0.131721
1458.68, 0.131540
1459.09, 0.131298
1459.5, 0.131781
1459.91, 0.131842
1460.32, 0.131902
1460.74, 0.132205
1461.15, 0.132023
1461.56, 0.131600
1461.97, 0.131116
1462.39, 0.131479
1462.8, 0.131721
1463.21, 0.131721
1463.62, 0.131660
1464.04, 0.131540
1464.45, 0.131660
1464.86, 0.131963
1465.28, 0.132023
1465.69, 0.131781
1466.11, 0.131479
1466.52, 0.131721
1466.94, 0.132084
1467.35, 0.132325
1467.77, 0.131963
1468.18, 0.132084
1468.6, 0.132084
1469.02, 0.131842
1469.43, 0.131902
1469.85, 0.131842
1470.27, 0.131781
1470.68, 0.132084
1471.1, 0.132023
1471.52, 0.131902
1471.94, 0.132023
1472.35, 0.131479
1472.77, 0.131479
1473.19, 0.131963
1473.61, 0.132265
1474.03, 0.132084
1474.45, 0.131781
1474.87, 0.131781
1475.29, 0.132205
1475.71, 0.132386
1476.13, 0.132084
1476.55, 0.131600
1476.97, 0.131902
1477.39, 0.132265
1477.81, 0.132205
1478.23, 0.131902
1478.65, 0.131842
1479.07, 0.131963
1479.5, 0.131842
1479.92, 0.131842
1480.34, 0.131902
1480.76, 0.132023
1481.19, 0.132144
1481.61, 0.132205
1482.03, 0.132084
1482.46, 0.131842
1482.88, 0.132023
1483.31, 0.131963
1483.73, 0.132144
1484.16, 0.132386
1484.58, 0.132265
1485.01, 0.132265
1485.43, 0.132205
1485.86, 0.132265
1486.28, 0.132144
1486.71, 0.132023
1487.14, 0.132023
1487.56, 0.131902
1487.99, 0.132265
1488.42, 0.132688
1488.84, 0.132507
1489.27, 0.132386
1489.7, 0.132386
1490.13, 0.132567
1490.56, 0.132386
1490.98, 0.132386
1491.41, 0.132325
1491.84, 0.132325
1492.27, 0.132809
1492.7, 0.132809
1493.13, 0.132265
1493.56, 0.132144
1493.99, 0.132144
1494.42, 0.132144
1494.85, 0.131963
1495.29, 0.132144
1495.72, 0.132325
1496.15, 0.132567
1496.58, 0.132990
1497.01, 0.133051
1497.44, 0.132809
1497.88, 0.132749
1498.31, 0.132749
1498.74, 0.132869
1499.18, 0.132809
1499.61, 0.132628
1500.04, 0.132990
1500.48, 0.133051
1500.91, 0.133051
1501.35, 0.133293
1501.78, 0.133111
1502.22, 0.132869
1502.65, 0.132869
1503.09, 0.132869
1503.53, 0.132930
1503.96, 0.133051
1504.4, 0.133172
1504.83, 0.133172
1505.27, 0.133051
1505.71, 0.132930
1506.15, 0.133232
1506.58, 0.133353
1507.02, 0.133051
1507.46, 0.133111
1507.9, 0.133414
1508.34, 0.133474
1508.78, 0.133474
1509.21, 0.133353
1509.66, 0.133172
1510.09, 0.133293
1510.53, 0.133595
1510.97, 0.133534
1511.42, 0.133232
1511.86, 0.133111
1512.3, 0.133293
1512.74, 0.133595
1513.18, 0.133595
1513.62, 0.133474
1514.06, 0.133474
1514.51, 0.133474
1514.95, 0.133474
1515.39, 0.133716
1515.83, 0.133716
1516.28, 0.133595
1516.72, 0.133595
1517.16, 0.133595
1517.61, 0.133414
1518.05, 0.133353
1518.5, 0.133414
1518.94, 0.133474
1519.39, 0.133595
1519.83, 0.133776
1520.28, 0.133655
1520.73, 0.133534
1521.17, 0.133595
1521.62, 0.133776
1522.07, 0.133595
1522.51, 0.133837
1522.96, 0.134078
1523.41, 0.134018
1523.85, 0.133958
1524.3, 0.133958
1524.75, 0.134018
1525.2, 0.133837
1525.65, 0.133837
1526.1, 0.134018
1526.55, 0.134018
1527.0, 0.134018
1527.45, 0.134078
1527.9, 0.133958
1528.35, 0.133958
1528.8, 0.133958
1529.25, 0.133897
1529.7, 0.134199
1530.15, 0.134441
1530.6, 0.134018
1531.05, 0.133716
1531.51, 0.133958
1531.96, 0.134199
1532.41, 0.134320
1532.87, 0.134320
1533.32, 0.134139
1533.77, 0.134199
1534.23, 0.134078
1534.68, 0.134199
1535.14, 0.134502
1535.59, 0.134441
1536.05, 0.134623
1536.5, 0.134683
1536.96, 0.134623
1537.41, 0.134441
1537.87, 0.134743
1538.32, 0.135167
1538.78, 0.134925
1539.24, 0.134864
1539.7, 0.134683
1540.15, 0.134743
1540.61, 0.135167
1541.07, 0.135046
1541.53, 0.134925
1541.98, 0.134743
1542.44, 0.134683
1542.9, 0.134804
1543.36, 0.135227
1543.82, 0.135408
1544.28, 0.134985
1544.74, 0.134683
1545.2, 0.134925
1545.66, 0.135227
1546.12, 0.135167
1546.59, 0.135167
1547.05, 0.135227
1547.51, 0.135348
1547.97, 0.135408
1548.43, 0.135408
1548.9, 0.135408
1549.36, 0.135590
1549.82, 0.135529
1550.29, 0.135469
1550.75, 0.135711
1551.21, 0.135529
1551.68, 0.135711
1552.14, 0.135529
1552.61, 0.135287
1553.07, 0.135892
1553.54, 0.136376
1554.0, 0.136134
1554.47, 0.135892
1554.93, 0.135952
1555.4, 0.136134
1555.87, 0.135952
1556.34, 0.136073
1556.8, 0.136134
1557.27, 0.135832
1557.74, 0.135650
1558.21, 0.135952
1558.68, 0.136255
1559.14, 0.135892
1559.61, 0.135832
1560.08, 0.136013
1560.55, 0.136013
1561.02, 0.136255
1561.49, 0.136557
1561.96, 0.136436
1562.43, 0.136436
1562.9, 0.136617
1563.38, 0.136557
1563.85, 0.136315
1564.32, 0.136376
1564.79, 0.136678
1565.26, 0.136678
1565.74, 0.136436
1566.21, 0.136376
1566.68, 0.136617
1567.16, 0.136617
1567.63, 0.136376
1568.1, 0.136738
1568.58, 0.137041
1569.05, 0.137041
1569.53, 0.137101
1570.0, 0.136859
1570.48, 0.136738
1570.96, 0.136980
1571.43, 0.137282
1571.91, 0.137161
1572.39, 0.136920
1572.86, 0.137041
1573.34, 0.137222
1573.82, 0.137464
1574.3, 0.137222
1574.77, 0.136980
1575.25, 0.136920
1575.73, 0.137041
1576.21, 0.137161
1576.69, 0.137101
1577.17, 0.137101
1577.65, 0.137282
1578.13, 0.137464
1578.61, 0.137524
1579.09, 0.137464
1579.57, 0.137464
1580.05, 0.137464
1580.54, 0.137403
1581.02, 0.137282
1581.5, 0.137403
1581.98, 0.137464
1582.47, 0.137403
1582.95, 0.137585
1583.43, 0.137645
1583.92, 0.137403
1584.4, 0.137343
1584.88, 0.137464
1585.37, 0.137826
1585.85, 0.137826
1586.34, 0.137645
1586.82, 0.137766
1587.31, 0.137766
1587.8, 0.137705
1588.28, 0.137705
1588.77, 0.137826
1589.26, 0.137947
1589.74, 0.137766
1590.23, 0.138008
1590.72, 0.138008
1591.21, 0.137766
1591.7, 0.137887
1592.19, 0.138310
1592.67, 0.138491
1593.16, 0.138129
1593.65, 0.138129
1594.14, 0.138310
1594.63, 0.138431
1595.12, 0.138552
1595.61, 0.138612
1596.11, 0.138491
1596.6, 0.138189
1597.09, 0.138129
1597.58, 0.138068
1598.08, 0.138129
1598.57, 0.138431
1599.06, 0.138431
1599.55, 0.138491
1600.05, 0.138794
1600.54, 0.138854
1601.04, 0.138794
1601.53, 0.138612
1602.03, 0.138612
1602.52, 0.138794
1603.02, 0.139035
1603.51, 0.139096
1604.01, 0.139035
1604.5, 0.138914
1605.0, 0.138733
1605.5, 0.138794
1606.0, 0.138854
1606.49, 0.138914
1606.99, 0.138975
1607.49, 0.139277
1607.99, 0.139338
1608.49, 0.139338
1608.99, 0.139459
1609.49, 0.139338
1609.99, 0.139338
1610.49, 0.139519
1610.99, 0.139761
1611.49, 0.139700
1611.99, 0.139579
1612.49, 0.139700
1612.99, 0.139700
1613.49, 0.139579
1614.0, 0.139640
1614.5, 0.140003
1615.0, 0.140123
1615.51, 0.139942
1616.01, 0.139882
1616.51, 0.140063
1617.02, 0.140244
1617.52, 0.140244
1618.03, 0.140123
1618.53, 0.140184
1619.04, 0.140063
1619.54, 0.140063
1620.05, 0.140184
1620.55, 0.140244
1621.06, 0.140305
1621.57, 0.140486
1622.08, 0.140365
1622.58, 0.140184
1623.09, 0.140123
1623.6, 0.140305
1624.11, 0.140607
1624.62, 0.140547
1625.13, 0.140486
1625.64, 0.140668
1626.15, 0.140788
1626.66, 0.140970
1627.17, 0.141091
1627.68, 0.141212
1628.19, 0.141151
1628.7, 0.141393
1629.21, 0.141151
1629.72, 0.140849
1630.24, 0.140909
1630.75, 0.141212
1631.26, 0.141453
1631.78, 0.141574
1632.29, 0.141453
1632.8, 0.141393
1633.32, 0.141453
1633.83, 0.141393
1634.35, 0.141514
1634.86, 0.141695
1635.38, 0.141937
1635.9, 0.141816
1636.41, 0.141393
1636.93, 0.141272
1637.45, 0.141635
1637.96, 0.141937
1638.48, 0.141756
1639.0, 0.141816
1639.52, 0.141997
1640.04, 0.142239
1640.56, 0.142179
1641.08, 0.141997
1641.59, 0.141937
1642.11, 0.142118
1642.63, 0.142239
1643.16, 0.142239
1643.68, 0.141997
1644.2, 0.142058
1644.72, 0.142118
1645.24, 0.142179
1645.76, 0.142300
1646.29, 0.142360
1646.81, 0.142481
1647.33, 0.142421
1647.86, 0.142481
1648.38, 0.142360
1648.9, 0.142421
1649.43, 0.142481
1649.95, 0.142421
1650.48, 0.142542
1651.0, 0.142542
1651.53, 0.142542
1652.06, 0.142723
1652.58, 0.142783
1653.11, 0.142783
1653.64, 0.142904
1654.17, 0.142783
1654.69, 0.142662
1655.22, 0.142723
1655.75, 0.142783
1656.28, 0.142965
1656.81, 0.142904
1657.34, 0.143025
1657.87, 0.143086
1658.4, 0.142965
1658.93, 0.142965
1659.46, 0.142965
1659.99, 0.142844
1660.52, 0.142965
1661.05, 0.143086
1661.59, 0.143388
1662.12, 0.143690
1662.65, 0.143569
1663.19, 0.143509
1663.72, 0.143509
1664.26, 0.143509
1664.79, 0.143569
1665.32, 0.143569
1665.86, 0.143630
1666.39, 0.143630
1666.93, 0.143448
1667.47, 0.143206
1668.0, 0.143388
1668.54, 0.143690
1669.08, 0.143811
1669.61, 0.143992
1670.15, 0.143932
1670.69, 0.144174
1671.23, 0.144295
1671.77, 0.144113
1672.31, 0.144174
1672.85, 0.144476
1673.39, 0.144476
1673.93, 0.144174
1674.47, 0.144174
1675.01, 0.144174
1675.55, 0.144234
1676.09, 0.144597
1676.64, 0.144597
1677.18, 0.144355
1677.72, 0.144355
1678.26, 0.144476
1678.81, 0.144718
1679.35, 0.144839
1679.89, 0.144960
1680.44, 0.145080
1680.98, 0.145020
1681.53, 0.144960
1682.07, 0.144960
1682.62, 0.145020
1683.17, 0.145262
1683.71, 0.145201
1684.26, 0.145141
1684.81, 0.145201
1685.36, 0.145201
1685.9, 0.145201
1686.45, 0.145322
1687.0, 0.145262
1687.55, 0.145201
1688.1, 0.145201
1688.65, 0.145443
1689.2, 0.145866
1689.75, 0.145866
1690.3, 0.145866
1690.85, 0.145745
1691.41, 0.145564
1691.96, 0.145624
1692.51, 0.145866
1693.06, 0.145927
1693.61, 0.145927
1694.17, 0.145987
1694.72, 0.146048
1695.28, 0.146289
1695.83, 0.146471
1696.39, 0.146652
1696.94, 0.146350
1697.5, 0.146229
1698.05, 0.146350
1698.61, 0.146531
1699.17, 0.146531
1699.72, 0.146531
1700.28, 0.146592
1700.84, 0.146773
1701.4, 0.146713
1701.95, 0.146713
1702.51, 0.146773
1703.07, 0.146833
1703.63, 0.146833
1704.19, 0.146894
1704.75, 0.146833
1705.31, 0.146954
1705.88, 0.147136
1706.44, 0.147136
1707.0, 0.147075
1707.56, 0.146954
1708.12, 0.147075
1708.69, 0.147075
1709.25, 0.147015
1709.81, 0.147378
1710.38, 0.147559
1710.94, 0.147559
1711.51, 0.147559
1712.07, 0.147378
1712.64, 0.147619
1713.2, 0.147801
1713.77, 0.147861
1714.34, 0.147922
1714.9, 0.147922
1715.47, 0.147740
1716.04, 0.147740
1716.61, 0.147801
1717.18, 0.147982
1717.74, 0.147982
1718.31, 0.147861
1718.88, 0.147740
1719.45, 0.147740
1720.02, 0.147740
1720.59, 0.147861
1721.17, 0.147922
1721.74, 0.147982
1722.31, 0.148103
1722.88, 0.148284
1723.45, 0.148284
1724.03, 0.148103
1724.6, 0.148163
1725.18, 0.148284
1725.75, 0.148163
1726.33, 0.148466
1726.9, 0.148647
1727.48, 0.148828
1728.05, 0.148707
1728.63, 0.148466
1729.2, 0.148405
1729.78, 0.148526
1730.36, 0.148647
1730.94, 0.148768
1731.51, 0.148828
1732.09, 0.149131
1732.67, 0.149131
1733.25, 0.148889
1733.83, 0.148707
1734.41, 0.148768
1734.99, 0.148707
1735.57, 0.148768
1736.15, 0.149010
1736.73, 0.149191
1737.32, 0.149131
1737.9, 0.149191
1738.48, 0.149251
1739.07, 0.149433
1739.65, 0.149493
1740.23, 0.149372
1740.82, 0.149251
1741.4, 0.149251
1741.99, 0.149554
1742.57, 0.149856
1743.16, 0.149916
1743.74, 0.149796
1744.33, 0.149554
1744.92, 0.149735
1745.51, 0.149977
1746.09, 0.150037
1746.68, 0.150037
1747.27, 0.149856
1747.86, 0.149614
1748.45, 0.149735
1749.04, 0.150158
1749.63, 0.150521
1750.22, 0.150521
1750.81, 0.150460
1751.4, 0.150460
1751.99, 0.150460
1752.59, 0.150642
1753.18, 0.150763
1753.77, 0.150763
1754.37, 0.150823
1754.96, 0.150702
1755.56, 0.150642
1756.15, 0.150763
1756.74, 0.151065
1757.34, 0.151186
1757.94, 0.151005
1758.53, 0.150884
1759.13, 0.151125
1759.73, 0.151307
1760.32, 0.151428
1760.92, 0.151428
1761.52, 0.151488
1762.12, 0.151428
1762.72, 0.151246
1763.32, 0.151246
1763.92, 0.151307
1764.52, 0.151549
1765.12, 0.151730
1765.72, 0.151790
1766.32, 0.151730
1766.92, 0.151730
1767.53, 0.151911
1768.13, 0.152032
1768.73, 0.151851
1769.34, 0.152093
1769.94, 0.152455
1770.55, 0.152334
1771.15, 0.152334
1771.76, 0.152395
1772.36, 0.152455
1772.97, 0.152455
1773.57, 0.152516
1774.18, 0.152637
1774.79, 0.152697
1775.4, 0.152758
1776.0, 0.152878
1776.61, 0.152697
1777.22, 0.152516
1777.83, 0.152758
1778.44, 0.152999
1779.05, 0.152999
1779.66, 0.152878
1780.27, 0.152758
1780.88, 0.152878
1781.5, 0.153060
1782.11, 0.153181
1782.72, 0.153181
1783.33, 0.153362
1783.95, 0.153664
1784.56, 0.153906
1785.18, 0.153785
1785.79, 0.153725
1786.41, 0.153604
1787.02, 0.153423
1787.64, 0.153483
1788.26, 0.153543
1788.87, 0.153362
1789.49, 0.153423
1790.11, 0.153846
1790.73, 0.153906
1791.35, 0.153664
1791.96, 0.153604
1792.58, 0.153846
1793.21, 0.153967
1793.83, 0.153664
1794.45, 0.153604
1795.07, 0.153846
1795.69, 0.153785
1796.31, 0.153785
1796.93, 0.154027
1797.56, 0.154148
1798.18, 0.154329
1798.8, 0.154511
1799.43, 0.154329
1800.05, 0.154208
1800.68, 0.154269
1801.3, 0.154208
1801.93, 0.154329
1802.56, 0.154511
1803.18, 0.154329
1803.81, 0.154450
1804.44, 0.154692
1805.07, 0.154571
1805.7, 0.154632
1806.33, 0.154752
1806.95, 0.154813
1807.58, 0.154752
1808.22, 0.154873
1808.85, 0.154873
1809.48, 0.154934
1810.11, 0.155176
1810.74, 0.155236
1811.38, 0.155236
1812.01, 0.155296
1812.64, 0.155296
1813.28, 0.155236
1813.91, 0.155055
1814.55, 0.155115
1815.18, 0.155357
1815.82, 0.155417
1816.45, 0.155417
1817.09, 0.155357
1817.73, 0.155357
1818.36, 0.155599
1819.0, 0.155538
1819.64, 0.155478
1820.28, 0.155720
1820.92, 0.155780
1821.56, 0.155780
1822.2, 0.155901
1822.84, 0.156082
1823.48, 0.156203
1824.12, 0.156143
1824.76, 0.156143
1825.41, 0.156143
1826.05, 0.156385
1826.69, 0.156506
1827.34, 0.156445
1827.98, 0.156445
1828.63, 0.156445
1829.27, 0.156445
1829.92, 0.156626
1830.56, 0.156808
1831.21, 0.156868
1831.86, 0.156808
1832.5, 0.156687
1833.15, 0.156929
1833.8, 0.156989
1834.45, 0.157050
1835.1, 0.157050
1835.75, 0.157231
1836.4, 0.157412
1837.05, 0.157231
1837.7, 0.157170
1838.35, 0.157291
1839.01, 0.157412
1839.66, 0.157352
1840.31, 0.157412
1840.96, 0.157896
1841.62, 0.158077
1842.27, 0.157956
1842.93, 0.157654
1843.58, 0.157594
1844.24, 0.157835
1844.9, 0.157956
1845.55, 0.158017
1846.21, 0.158259
1846.87, 0.158259
1847.53, 0.158138
1848.18, 0.158259
1848.84, 0.158319
1849.5, 0.158259
1850.16, 0.158379
1850.82, 0.158379
1851.48, 0.158440
1852.14, 0.158621
1852.81, 0.158742
1853.47, 0.158984
1854.13, 0.159105
1854.8, 0.158924
1855.46, 0.158984
1856.12, 0.159105
1856.79, 0.159105
1857.45, 0.159044
1858.12, 0.158984
1858.79, 0.159165
1859.45, 0.159528
1860.12, 0.159588
1860.79, 0.159347
1861.46, 0.159347
1862.12, 0.159407
1862.79, 0.159468
1863.46, 0.159407
1864.13, 0.159588
1864.8, 0.159830
1865.48, 0.159770
1866.15, 0.159528
1866.82, 0.159709
1867.49, 0.160132
1868.16, 0.160072
1868.84, 0.159830
1869.51, 0.159891
1870.19, 0.159951
1870.86, 0.160012
1871.54, 0.159951
1872.21, 0.159951
1872.89, 0.160253
1873.56, 0.160374
1874.24, 0.160253
1874.92, 0.160374
1875.6, 0.160253
1876.28, 0.160012
1876.96, 0.160253
1877.64, 0.160374
1878.32, 0.160253
1879.0, 0.160314
1879.68, 0.160435
1880.36, 0.160435
1881.04, 0.160374
1881.73, 0.160193
1882.41, 0.160314
1883.09, 0.160495
1883.78, 0.160314
1884.46, 0.160253
1885.15, 0.160435
1885.83, 0.160797
1886.52, 0.160677
1887.21, 0.160495
1887.89, 0.160435
1888.58, 0.160616
1889.27, 0.160737
1889.96, 0.160858
1890.65, 0.160858
1891.34, 0.160737
1892.03, 0.160797
1892.72, 0.160737
1893.41, 0.160556
1894.1, 0.160616
1894.79, 0.160737
1895.49, 0.160737
1896.18, 0.160918
1896.87, 0.160797
1897.57, 0.160737
1898.26, 0.160737
1898.96, 0.160918
1899.65, 0.161100
1900.35, 0.160979
1901.05, 0.160737
1901.74, 0.160858
1902.44, 0.160858
1903.14, 0.160858
1903.84, 0.160918
1904.54, 0.160918
1905.24, 0.161100
1905.94, 0.161221
1906.64, 0.161221
1907.34, 0.161402
1908.04, 0.161402
1908.75, 0.161402
1909.45, 0.161221
1910.15, 0.161100
1910.86, 0.161221
1911.56, 0.161342
1912.27, 0.161402
1912.97, 0.161523
1913.68, 0.161644
1914.39, 0.161644
1915.09, 0.161583
1915.8, 0.161644
1916.51, 0.161886
1917.22, 0.162067
1917.93, 0.162309
1918.64, 0.162369
1919.35, 0.162188
1920.06, 0.162309
1920.77, 0.162430
1921.48, 0.162309
1922.19, 0.162309
1922.91, 0.162430
1923.62, 0.162490
1924.33, 0.162671
1925.05, 0.162732
1925.76, 0.162792
1926.48, 0.162853
1927.19, 0.163155
1927.91, 0.163336
1928.63, 0.163397
1929.35, 0.163457
1930.07, 0.163457
1930.78, 0.163518
1931.5, 0.163457
1932.22, 0.163457
1932.94, 0.163518
1933.66, 0.163578
1934.39, 0.163518
1935.11, 0.163639
1935.83, 0.163820
1936.55, 0.164122
1937.28, 0.164304
1938.0, 0.164304
1938.73, 0.164183
1939.45, 0.164183
1940.18, 0.164364
1940.9, 0.164424
1941.63, 0.164545
1942.36, 0.164666
1943.09, 0.164606
1943.81, 0.164727
1944.54, 0.164908
1945.27, 0.164969
1946.0, 0.164787
1946.73, 0.164727
1947.47, 0.164848
1948.2, 0.165150
1948.93, 0.165392
1949.66, 0.165331
1950.4, 0.165452
1951.13, 0.165573
1951.86, 0.165513
1952.6, 0.165633
1953.34, 0.165754
1954.07, 0.165815
1954.81, 0.165754
1955.55, 0.165875
1956.29, 0.165936
1957.02, 0.165996
1957.76, 0.165996
1958.5, 0.165996
1959.24, 0.166117
1959.98, 0.166057
1960.72, 0.166178
1961.47, 0.166238
1962.21, 0.166178
1962.95, 0.166178
1963.7, 0.166480
1964.44, 0.166661
1965.18, 0.166661
1965.93, 0.166540
1966.67, 0.166419
1967.42, 0.166480
1968.17, 0.166661
1968.92, 0.166722
1969.66, 0.166722
1970.41, 0.167024
1971.16, 0.167145
1971.91, 0.167145
1972.66, 0.167024
1973.41, 0.167145
1974.16, 0.167387
1974.92, 0.167507
1975.67, 0.167387
1976.42, 0.167326
1977.18, 0.167507
1977.93, 0.167689
1978.69, 0.167749
1979.44, 0.167749
1980.2, 0.167689
1980.95, 0.167689
1981.71, 0.167689
1982.47, 0.167870
1983.23, 0.167991
1983.99, 0.167810
1984.74, 0.167749
1985.51, 0.168051
1986.27, 0.168172
1987.03, 0.168172
1987.79, 0.168112
1988.55, 0.168293
1989.32, 0.168293
1990.08, 0.168354
1990.84, 0.168414
1991.61, 0.168414
1992.37, 0.168596
1993.14, 0.168656
1993.9, 0.168596
1994.67, 0.168535
1995.44, 0.168716
1996.21, 0.168656
1996.98, 0.168596
1997.75, 0.168716
1998.52, 0.168777
1999.29, 0.168898
2000.06, 0.169140
2000.83, 0.169442
2001.6, 0.169623
2002.38, 0.169563
2003.15, 0.169321
2003.93, 0.169381
2004.7, 0.169563
2005.48, 0.169563
2006.25, 0.169381
2007.03, 0.169563
2007.81, 0.169684
2008.58, 0.169865
2009.36, 0.169925
2010.14, 0.169865
2010.92, 0.169986
2011.7, 0.169986
2012.48, 0.170107
2013.26, 0.170349
2014.05, 0.170349
2014.83, 0.170409
2015.61, 0.170469
