Database of Origin, USGS Spectral Database
Sample Description, See USGS database for additional info
Date Added,2016-08-03 21:09:21.391547

Data ID,USGS_bru01          
Sample ID, brucite_hs247.3867
Mineral Name, brucite
Material Class,Hydroxide

Wavelength
268.6, 0.290522
273.1, 0.282502
277.1, 0.295293
281.1, 0.289903
285.1, 0.296979
289.1, 0.289073
293.1, 0.294091
297.1, 0.289934
301.1, 0.280022
305.1, 0.295867
309.1, 0.296421
313.1, 0.305537
317.1, 0.299002
321.1, 0.306306
325.1, 0.314046
329.1, 0.324759
333.1, 0.324558
337.1, 0.339173
341.1, 0.347025
345.1, 0.368520
349.1, 0.373468
353.1, 0.394414
357.1, 0.407823
360.6, 0.424628
363.6, 0.427620
366.6, 0.444677
369.6, 0.463375
372.6, 0.478642
375.6, 0.494489
378.6, 0.510825
381.1, 0.525975
383.1, 0.529570
385.1, 0.550542
387.1, 0.559277
389.1, 0.573733
391.1, 0.582185
393.1, 0.600265
395.1, 0.609927
397.1, 0.615489
399.1, 0.624078
401.1, 0.639751
403.1, 0.651155
405.1, 0.661073
407.1, 0.673039
409.1, 0.691741
411.1, 0.695025
412.8, 0.696445
415.8, 0.716845
418.8, 0.723797
421.8, 0.729703
424.8, 0.740911
427.8, 0.755706
430.8, 0.762792
433.8, 0.770720
436.8, 0.780057
439.8, 0.783574
442.8, 0.793445
445.8, 0.804912
448.8, 0.813315
451.3, 0.811677
453.3, 0.824445
455.3, 0.830885
457.3, 0.825858
459.3, 0.836579
461.3, 0.843485
463.3, 0.843577
465.3, 0.846361
467.3, 0.846436
469.3, 0.848335
471.3, 0.852645
473.3, 0.850094
475.3, 0.853118
477.3, 0.852213
479.3, 0.852250
481.3, 0.859331
483.3, 0.853737
485.3, 0.858153
487.3, 0.861747
489.3, 0.856934
491.3, 0.861755
493.3, 0.862507
495.3, 0.865879
497.3, 0.864564
499.3, 0.863341
501.3, 0.857291
503.3, 0.864132
505.3, 0.866223
507.3, 0.864091
509.3, 0.865352
511.3, 0.862630
513.3, 0.862526
515.3, 0.864516
517.3, 0.858795
519.3, 0.866169
521.3, 0.861499
523.3, 0.871418
525.3, 0.871248
527.3, 0.870406
529.3, 0.875640
531.3, 0.875733
533.3, 0.876582
535.3, 0.872756
537.3, 0.877988
539.3, 0.873131
541.3, 0.876827
543.3, 0.880734
545.3, 0.878153
547.3, 0.877021
549.3, 0.878243
551.3, 0.879187
553.3, 0.881173
555.3, 0.875298
557.3, 0.880113
559.3, 0.885426
561.3, 0.878784
563.3, 0.879257
565.3, 0.878977
567.3, 0.882194
569.3, 0.880965
571.3, 0.884559
573.3, 0.885605
575.3, 0.890535
577.3, 0.889403
579.3, 0.896283
581.3, 0.887044
583.3, 0.890927
585.3, 0.892340
587.3, 0.890918
589.3, 0.893735
591.3, 0.894779
593.3, 0.887695
595.3, 0.894191
597.3, 0.899904
599.3, 0.894641
601.1, 0.895489
602.7, 0.899910
604.3, 0.890581
605.9, 0.901526
607.5, 0.893575
609.1, 0.896209
610.7, 0.896920
612.3, 0.897870
613.9, 0.891225
615.5, 0.898793
617.1, 0.895346
618.7, 0.904718
620.3, 0.903532
621.9, 0.899253
623.5, 0.902578
625.1, 0.897924
626.7, 0.902310
628.3, 0.900251
629.9, 0.899760
631.7, 0.898572
633.7, 0.902879
635.7, 0.899249
637.7, 0.903375
639.7, 0.901354
641.7, 0.899376
643.7, 0.900560
645.7, 0.902154
647.7, 0.899533
649.7, 0.901696
651.7, 0.898724
653.7, 0.904282
655.7, 0.898506
657.7, 0.904852
659.7, 0.907143
661.7, 0.904661
663.7, 0.906218
665.7, 0.908582
667.7, 0.906936
670.2, 0.909036
673.2, 0.906218
676.2, 0.910136
679.2, 0.909420
682.2, 0.908200
685.2, 0.902721
688.2, 0.908103
691.2, 0.906157
694.2, 0.909135
697.2, 0.909328
700.2, 0.904819
702.0, 0.913189
704.0, 0.908511
706.0, 0.907593
708.0, 0.906896
710.0, 0.911414
712.0, 0.908220
714.0, 0.913303
716.0, 0.911273
718.0, 0.910937
720.0, 0.907732
722.0, 0.912553
724.0, 0.904877
726.0, 0.909069
728.0, 0.902319
730.0, 0.897062
732.0, 0.894494
734.0, 0.879752
736.0, 0.892502
738.0, 0.903050
740.0, 0.902270
742.0, 0.903441
744.0, 0.905085
746.0, 0.899754
748.0, 0.904186
750.5, 0.900226
753.5, 0.899900
756.5, 0.902767
759.5, 0.897891
762.5, 0.902607
765.5, 0.894186
768.5, 0.895778
771.5, 0.893247
774.5, 0.892107
777.5, 0.899333
781.0, 0.889992
785.0, 0.887751
789.0, 0.885808
793.0, 0.884144
797.0, 0.882937
801.5, 0.876527
806.5, 0.878522
811.5, 0.876844
816.5, 0.873342
822.0, 0.869453
828.0, 0.866400
835.0, 0.865680
843.0, 0.873310
851.0, 0.865201
859.0, 0.860129
871.0, 0.855532
883.0, 0.856092
894.0, 0.856230
904.0, 0.851563
914.0, 0.850135
924.0, 0.838250
933.0, 0.852631
941.0, 0.837479
949.0, 0.786020
957.0, 0.741239
964.0, 0.836569
970.0, 0.843496
976.0, 0.855704
982.0, 0.849596
988.0, 0.849437
994.0, 0.852333
1000.0, 0.855096
1006.0, 0.853786
1012.0, 0.850601
1018.0, 0.852917
1023.5, 0.849583
1028.5, 0.849352
1033.5, 0.852148
1038.5, 0.848831
1043.5, 0.852965
1048.5, 0.850433
1053.5, 0.851676
1058.5, 0.852467
1063.5, 0.853783
1068.5, 0.853110
1073.5, 0.853594
1078.5, 0.854500
1083.5, 0.856758
1088.5, 0.859088
1093.5, 0.862260
1098.5, 0.859197
1103.5, 0.859442
1108.5, 0.858546
1113.5, 0.865265
1118.5, 0.864190
1123.5, 0.868612
1128.5, 0.867556
1133.5, 0.868154
1138.5, 0.870140
1143.5, 0.868016
1148.5, 0.872938
1153.5, 0.869254
1158.5, 0.868102
1163.5, 0.868393
1168.5, 0.870387
1173.5, 0.867412
1178.5, 0.870254
1183.5, 0.869401
1188.5, 0.869457
1193.5, 0.869427
1198.5, 0.869524
1203.5, 0.870434
1208.5, 0.870435
1213.5, 0.866503
1218.5, 0.865962
1223.5, 0.865330
1228.5, 0.862629
1233.5, 0.860667
1238.5, 0.848463
1243.5, 0.850429
1248.5, 0.855044
1253.5, 0.856420
1258.5, 0.858144
1263.5, 0.861275
1268.5, 0.862145
1273.5, 0.859127
1278.5, 0.849026
1283.5, 0.835163
1288.5, 0.821557
1293.5, 0.792653
1298.5, 0.778219
1303.5, 0.793169
1308.5, 0.815386
1313.5, 0.808441
1318.5, 0.807022
1323.5, 0.805764
1328.5, 0.809395
1333.5, 0.803165
1338.5, 0.790863
1343.5, 0.780539
1348.5, 0.795156
1353.5, 0.786819
1358.5, 0.646272
1363.5, 0.572473
1368.5, 0.724979
1373.5, 0.708424
1378.5, 0.637899
1383.5, 0.604363
1388.5, 0.551951
1393.5, 0.376985
1398.5, 0.264201
1403.5, 0.489916
1408.5, 0.670052
1413.5, 0.732952
1418.5, 0.756191
1423.5, 0.785961
1428.5, 0.794272
1433.5, 0.788316
1438.5, 0.792185
1443.5, 0.799119
1448.5, 0.811489
1453.5, 0.813263
1458.5, 0.812618
1463.5, 0.820002
1468.5, 0.819834
1473.5, 0.820886
1478.5, 0.818300
1483.5, 0.825988
1488.5, 0.825140
1493.5, 0.831898
1498.5, 0.838278
1503.5, 0.839370
1508.5, 0.840088
1513.5, 0.839426
1518.5, 0.841128
1523.5, 0.845766
1528.5, 0.839217
1534.0, 0.835790
1540.0, 0.838331
1546.0, 0.840849
1552.0, 0.838451
1558.0, 0.837340
1564.0, 0.838368
1570.5, 0.838992
1577.5, 0.838277
1584.5, 0.834922
1591.5, 0.835870
1598.5, 0.830536
1605.5, 0.829711
1612.5, 0.823166
1619.5, 0.823492
1626.5, 0.817434
1633.5, 0.817369
1640.5, 0.815601
1647.5, 0.806766
1654.5, 0.804266
1661.5, 0.799240
1668.5, 0.797182
1676.0, 0.791050
1684.0, 0.785740
1692.0, 0.780101
1700.0, 0.768631
1708.0, 0.763880
1716.0, 0.760250
1724.0, 0.759967
1732.0, 0.749256
1740.0, 0.740270
1748.0, 0.733794
1756.0, 0.728632
1764.0, 0.726989
1772.0, 0.718694
1780.0, 0.716672
1788.0, 0.707884
1796.0, 0.703473
1805.0, 0.693919
1815.0, 0.685199
1825.0, 0.675142
1835.0, 0.666397
1845.0, 0.649083
1855.0, 0.640970
1865.0, 0.628049
1875.0, 0.615949
1885.0, 0.603067
1895.0, 0.592856
1905.0, 0.575987
1915.0, 0.565605
1925.0, 0.547415
1935.0, 0.544426
1945.0, 0.542623
1955.0, 0.539897
1965.0, 0.534836
1975.0, 0.526901
1985.0, 0.515872
1995.0, 0.497085
2005.0, 0.476694
2015.0, 0.460317
2025.0, 0.454222
2035.0, 0.446587
2045.0, 0.436672
2055.0, 0.429016
2065.0, 0.424644
2075.0, 0.422718
2085.0, 0.420529
2095.0, 0.421157
2105.0, 0.414187
2115.0, 0.412208
2125.0, 0.407189
2135.0, 0.414853
2145.0, 0.418568
2155.0, 0.422020
2165.0, 0.409681
2175.0, 0.388824
2185.0, 0.348780
2195.0, 0.320042
2205.0, 0.307528
2215.0, 0.293934
2225.0, 0.278100
2235.0, 0.264567
2245.0, 0.253545
2255.0, 0.249258
2265.0, 0.242892
2275.0, 0.243176
2285.0, 0.236204
2295.0, 0.206039
2305.0, 0.180454
2315.0, 0.156518
2325.0, 0.168898
2335.0, 0.196614
2345.0, 0.241175
2355.0, 0.273741
2365.0, 0.288189
2375.0, 0.293103
2386.0, 0.291629
2400.0, 0.268544
2418.0, 0.171996
2440.0, 0.104297
2466.0, 0.0755960
2496.0, 0.0807120
2528.0, 0.103220
2560.0, 0.147039
2592.0, 0.162941
2624.0, 0.110239
2656.0, 0.110208
2688.0, 0.0872450
2720.0, 0.0451590
2752.0, 0.0653500
2784.0, 0.0564180
2816.0, 0.0659090
2848.0, 0.0516290
2880.0, 0.0580800
2912.0, 0.0469530
2944.0, 0.0448620
2976.0, 0.0553590
