Database of Origin, USGS Spectral Database
Sample Description, See USGS database for additional info
Date Added,2017-07-03 06:06:52.810917

Data ID,USGS_pyr20          
Sample ID, pyrrhotite_hs269.19021
Mineral Name, pyrrhotite
Material Class,Sulfide

Wavelength
1499.61, 0.0834870
1500.04, 0.0836140
1500.48, 0.0836560
1500.91, 0.0835290
1501.35, 0.0833600
1501.78, 0.0835720
1502.22, 0.0837830
1502.65, 0.0838670
1503.09, 0.0839100
1503.53, 0.0839100
1503.96, 0.0838670
1504.4, 0.0838250
1504.83, 0.0838670
1505.27, 0.0837410
1505.71, 0.0836560
1506.15, 0.0836980
1506.58, 0.0837830
1507.02, 0.0836560
1507.46, 0.0836980
1507.9, 0.0838670
1508.34, 0.0841630
1508.78, 0.0840370
1509.21, 0.0837830
1509.66, 0.0837830
1510.09, 0.0837830
1510.53, 0.0838670
1510.97, 0.0839100
1511.42, 0.0838250
1511.86, 0.0838250
1512.3, 0.0837830
1512.74, 0.0839520
1513.18, 0.0841210
1513.62, 0.0841630
1514.06, 0.0842060
1514.51, 0.0842060
1514.95, 0.0841630
1515.39, 0.0842060
1515.83, 0.0842060
1516.28, 0.0844170
1516.72, 0.0844170
1517.16, 0.0842060
1517.61, 0.0841210
1518.05, 0.0841630
1518.5, 0.0842480
1518.94, 0.0842480
1519.39, 0.0843320
1519.83, 0.0842060
1520.28, 0.0842480
1520.73, 0.0844590
1521.17, 0.0843750
1521.62, 0.0844170
1522.07, 0.0845860
1522.51, 0.0845020
1522.96, 0.0842480
1523.41, 0.0845020
1523.85, 0.0847130
1524.3, 0.0844170
1524.75, 0.0843320
1525.2, 0.0845440
1525.65, 0.0844170
1526.1, 0.0844170
1526.55, 0.0845440
1527.0, 0.0846280
1527.45, 0.0845440
1527.9, 0.0844170
1528.35, 0.0845860
1528.8, 0.0848400
1529.25, 0.0848820
1529.7, 0.0847970
1530.15, 0.0846280
1530.6, 0.0844590
1531.05, 0.0845440
1531.51, 0.0846710
1531.96, 0.0845860
1532.41, 0.0845860
1532.87, 0.0847130
1533.32, 0.0848400
1533.77, 0.0850090
1534.23, 0.0850510
1534.68, 0.0850090
1535.14, 0.0850090
1535.59, 0.0849670
1536.05, 0.0849670
1536.5, 0.0848820
1536.96, 0.0849240
1537.41, 0.0848400
1537.87, 0.0847970
1538.32, 0.0849240
1538.78, 0.0848820
1539.24, 0.0850090
1539.7, 0.0850510
1540.15, 0.0850090
1540.61, 0.0851360
1541.07, 0.0852620
1541.53, 0.0853890
1541.98, 0.0852200
1542.44, 0.0850930
1542.9, 0.0852620
1543.36, 0.0852620
1543.82, 0.0852620
1544.28, 0.0853470
1544.74, 0.0853890
1545.2, 0.0854320
1545.66, 0.0854320
1546.12, 0.0854320
1546.59, 0.0854740
1547.05, 0.0854320
1547.51, 0.0854320
1547.97, 0.0855160
1548.43, 0.0856010
1548.9, 0.0856430
1549.36, 0.0855580
1549.82, 0.0856430
1550.29, 0.0856430
1550.75, 0.0856850
1551.21, 0.0856430
1551.68, 0.0856010
1552.14, 0.0856850
1552.61, 0.0856850
1553.07, 0.0858540
1553.54, 0.0859390
1554.0, 0.0859810
1554.47, 0.0859390
1554.93, 0.0859810
1555.4, 0.0859810
1555.87, 0.0860660
1556.34, 0.0862350
1556.8, 0.0861500
1557.27, 0.0862350
1557.74, 0.0861080
1558.21, 0.0859810
1558.68, 0.0861080
1559.14, 0.0861500
1559.61, 0.0862350
1560.08, 0.0864460
1560.55, 0.0864880
1561.02, 0.0863190
1561.49, 0.0863610
1561.96, 0.0864460
1562.43, 0.0864880
1562.9, 0.0865310
1563.38, 0.0865730
1563.85, 0.0864880
1564.32, 0.0865730
1564.79, 0.0868260
1565.26, 0.0869110
1565.74, 0.0867000
1566.21, 0.0867000
1566.68, 0.0869530
1567.16, 0.0869530
1567.63, 0.0868260
1568.1, 0.0867840
1568.58, 0.0867840
1569.05, 0.0869110
1569.53, 0.0870800
1570.0, 0.0870800
1570.48, 0.0869530
1570.96, 0.0866150
1571.43, 0.0867420
1571.91, 0.0869530
1572.39, 0.0870380
1572.86, 0.0871650
1573.34, 0.0872910
1573.82, 0.0872070
1574.3, 0.0873340
1574.77, 0.0873760
1575.25, 0.0873340
1575.73, 0.0872490
1576.21, 0.0871650
1576.69, 0.0872490
1577.17, 0.0874180
1577.65, 0.0874610
1578.13, 0.0875450
1578.61, 0.0876300
1579.09, 0.0874610
1579.57, 0.0875030
1580.05, 0.0877140
1580.54, 0.0875450
1581.02, 0.0875030
1581.5, 0.0874180
1581.98, 0.0875030
1582.47, 0.0875450
1582.95, 0.0875450
1583.43, 0.0875450
1583.92, 0.0877990
1584.4, 0.0877560
1584.88, 0.0876300
1585.37, 0.0877560
1585.85, 0.0877140
1586.34, 0.0877990
1586.82, 0.0877990
1587.31, 0.0877990
1587.8, 0.0879680
1588.28, 0.0879260
1588.77, 0.0879260
1589.26, 0.0879680
1589.74, 0.0880100
1590.23, 0.0881370
1590.72, 0.0880950
1591.21, 0.0880520
1591.7, 0.0882210
1592.19, 0.0883480
1592.67, 0.0882640
1593.16, 0.0882210
1593.65, 0.0880100
1594.14, 0.0879680
1594.63, 0.0882210
1595.12, 0.0882640
1595.61, 0.0883480
1596.11, 0.0884330
1596.6, 0.0882640
1597.09, 0.0881790
1597.58, 0.0882640
1598.08, 0.0883060
1598.57, 0.0883060
1599.06, 0.0882210
1599.55, 0.0880100
1600.05, 0.0880100
1600.54, 0.0882210
1601.04, 0.0883060
1601.53, 0.0883910
1602.03, 0.0884750
1602.52, 0.0885170
1603.02, 0.0885600
1603.51, 0.0884750
1604.01, 0.0884330
1604.5, 0.0885600
1605.0, 0.0886020
1605.5, 0.0888130
1606.0, 0.0887710
1606.49, 0.0887290
1606.99, 0.0887710
1607.49, 0.0889400
1607.99, 0.0889400
1608.49, 0.0889820
1608.99, 0.0889820
1609.49, 0.0889400
1609.99, 0.0889400
1610.49, 0.0890670
1610.99, 0.0893210
1611.49, 0.0893210
1611.99, 0.0891940
1612.49, 0.0891090
1612.99, 0.0891090
1613.49, 0.0891510
1614.0, 0.0893210
1614.5, 0.0893630
1615.0, 0.0892360
1615.51, 0.0893630
1616.01, 0.0895320
1616.51, 0.0895320
1617.02, 0.0895740
1617.52, 0.0896160
1618.03, 0.0896590
1618.53, 0.0896160
1619.04, 0.0894900
1619.54, 0.0896590
1620.05, 0.0896590
1620.55, 0.0894470
1621.06, 0.0895740
1621.57, 0.0897010
1622.08, 0.0897010
1622.58, 0.0898700
1623.09, 0.0899970
1623.6, 0.0899120
1624.11, 0.0899970
1624.62, 0.0901660
1625.13, 0.0901660
1625.64, 0.0901660
1626.15, 0.0899970
1626.66, 0.0899970
1627.17, 0.0901240
1627.68, 0.0902080
1628.19, 0.0902930
1628.7, 0.0903350
1629.21, 0.0904200
1629.72, 0.0903770
1630.24, 0.0902510
1630.75, 0.0901660
1631.26, 0.0902080
1631.78, 0.0903350
1632.29, 0.0901660
1632.8, 0.0901240
1633.32, 0.0903350
1633.83, 0.0903770
1634.35, 0.0904200
1634.86, 0.0905460
1635.38, 0.0905890
1635.9, 0.0905460
1636.41, 0.0904200
1636.93, 0.0904200
1637.45, 0.0906310
1637.96, 0.0907150
1638.48, 0.0907150
1639.0, 0.0907150
1639.52, 0.0908000
1640.04, 0.0907580
1640.56, 0.0905040
1641.08, 0.0903770
1641.59, 0.0906310
1642.11, 0.0909690
1642.63, 0.0908850
1643.16, 0.0909270
1643.68, 0.0909270
1644.2, 0.0910540
1644.72, 0.0911380
1645.24, 0.0910110
1645.76, 0.0909270
1646.29, 0.0908850
1646.81, 0.0910110
1647.33, 0.0911800
1647.86, 0.0911800
1648.38, 0.0910960
1648.9, 0.0910540
1649.43, 0.0910960
1649.95, 0.0910540
1650.48, 0.0909690
1651.0, 0.0910110
1651.53, 0.0911800
1652.06, 0.0913500
1652.58, 0.0912650
1653.11, 0.0914340
1653.64, 0.0916030
1654.17, 0.0915190
1654.69, 0.0913500
1655.22, 0.0913920
1655.75, 0.0914760
1656.28, 0.0915190
1656.81, 0.0915610
1657.34, 0.0915610
1657.87, 0.0916450
1658.4, 0.0916450
1658.93, 0.0915610
1659.46, 0.0916030
1659.99, 0.0916450
1660.52, 0.0917300
1661.05, 0.0917300
1661.59, 0.0916880
1662.12, 0.0916880
1662.65, 0.0916450
1663.19, 0.0916030
1663.72, 0.0916880
1664.26, 0.0916880
1664.79, 0.0915610
1665.32, 0.0916880
1665.86, 0.0917720
1666.39, 0.0919410
1666.93, 0.0918990
1667.47, 0.0918990
1668.0, 0.0919840
1668.54, 0.0921100
1669.08, 0.0922370
1669.61, 0.0922370
1670.15, 0.0922370
1670.69, 0.0922370
1671.23, 0.0919840
1671.77, 0.0919410
1672.31, 0.0921530
1672.85, 0.0922370
1673.39, 0.0922370
1673.93, 0.0922800
1674.47, 0.0922370
1675.01, 0.0921950
1675.55, 0.0921950
1676.09, 0.0921950
1676.64, 0.0922800
1677.18, 0.0923640
1677.72, 0.0923640
1678.26, 0.0924910
1678.81, 0.0925750
1679.35, 0.0925330
1679.89, 0.0924490
1680.44, 0.0924910
1680.98, 0.0924490
1681.53, 0.0924910
1682.07, 0.0925330
1682.62, 0.0926180
1683.17, 0.0927020
1683.71, 0.0928710
1684.26, 0.0927020
1684.81, 0.0927020
1685.36, 0.0929560
1685.9, 0.0929980
1686.45, 0.0929980
1687.0, 0.0931250
1687.55, 0.0931670
1688.1, 0.0930830
1688.65, 0.0929980
1689.2, 0.0931670
1689.75, 0.0931670
1690.3, 0.0932520
1690.85, 0.0931670
1691.41, 0.0929560
1691.96, 0.0931250
1692.51, 0.0932520
1693.06, 0.0931670
1693.61, 0.0933360
1694.17, 0.0934630
1694.72, 0.0932940
1695.28, 0.0932100
1695.83, 0.0932520
1696.39, 0.0932520
1696.94, 0.0933790
1697.5, 0.0934630
1698.05, 0.0935050
1698.61, 0.0935050
1699.17, 0.0934210
1699.72, 0.0934630
1700.28, 0.0935050
1700.84, 0.0933360
1701.4, 0.0932940
1701.95, 0.0933790
1702.51, 0.0935900
1703.07, 0.0937170
1703.63, 0.0937590
1704.19, 0.0939280
1704.75, 0.0939280
1705.31, 0.0936320
1705.88, 0.0937170
1706.44, 0.0938440
1707.0, 0.0938860
1707.56, 0.0939700
1708.12, 0.0938440
1708.69, 0.0937170
1709.25, 0.0937170
1709.81, 0.0938010
1710.38, 0.0938440
1710.94, 0.0940130
1711.51, 0.0939700
1712.07, 0.0939280
1712.64, 0.0940550
1713.2, 0.0941400
1713.77, 0.0941400
1714.34, 0.0940970
1714.9, 0.0939280
1715.47, 0.0938860
1716.04, 0.0940970
1716.61, 0.0940550
1717.18, 0.0940130
1717.74, 0.0940550
1718.31, 0.0941820
1718.88, 0.0942240
1719.45, 0.0940970
1720.02, 0.0940550
1720.59, 0.0941820
1721.17, 0.0941400
1721.74, 0.0940550
1722.31, 0.0941820
1722.88, 0.0941820
1723.45, 0.0941400
1724.03, 0.0942660
1724.6, 0.0942240
1725.18, 0.0941400
1725.75, 0.0942240
1726.33, 0.0943930
1726.9, 0.0943930
1727.48, 0.0943930
1728.05, 0.0943930
1728.63, 0.0943930
1729.2, 0.0944780
1729.78, 0.0945620
1730.36, 0.0944780
1730.94, 0.0944350
1731.51, 0.0943930
1732.09, 0.0943090
1732.67, 0.0943510
1733.25, 0.0943930
1733.83, 0.0945620
1734.41, 0.0946470
1734.99, 0.0945200
1735.57, 0.0946050
1736.15, 0.0945620
1736.73, 0.0944780
1737.32, 0.0945620
1737.9, 0.0945200
1738.48, 0.0946470
1739.07, 0.0948580
1739.65, 0.0948160
1740.23, 0.0946470
1740.82, 0.0947310
1741.4, 0.0950270
1741.99, 0.0949000
1742.57, 0.0946890
1743.16, 0.0948160
1743.74, 0.0948160
1744.33, 0.0947310
1744.92, 0.0948160
1745.51, 0.0949850
1746.09, 0.0950700
1746.68, 0.0950270
1747.27, 0.0950700
1747.86, 0.0951120
1748.45, 0.0950270
1749.04, 0.0950270
1749.63, 0.0950700
1750.22, 0.0949430
1750.81, 0.0949000
1751.4, 0.0951120
1751.99, 0.0952810
1752.59, 0.0952390
1753.18, 0.0953230
1753.77, 0.0952390
1754.37, 0.0952390
1754.96, 0.0951960
1755.56, 0.0951960
1756.15, 0.0951960
1756.74, 0.0952810
1757.34, 0.0952390
1757.94, 0.0954080
1758.53, 0.0954500
1759.13, 0.0954920
1759.73, 0.0955340
1760.32, 0.0954080
1760.92, 0.0953650
1761.52, 0.0953650
1762.12, 0.0952390
1762.72, 0.0955340
1763.32, 0.0957460
1763.92, 0.0958300
1764.52, 0.0958730
1765.12, 0.0958300
1765.72, 0.0956610
1766.32, 0.0956610
1766.92, 0.0957040
1767.53, 0.0957040
1768.13, 0.0957880
1768.73, 0.0958300
1769.34, 0.0958300
1769.94, 0.0958730
1770.55, 0.0959150
1771.15, 0.0958730
1771.76, 0.0958730
1772.36, 0.0958300
1772.97, 0.0958730
1773.57, 0.0959990
1774.18, 0.0959150
1774.79, 0.0958730
1775.4, 0.0959570
1776.0, 0.0959150
1776.61, 0.0959150
1777.22, 0.0960420
1777.83, 0.0960840
1778.44, 0.0959990
1779.05, 0.0960420
1779.66, 0.0961690
1780.27, 0.0960420
1780.88, 0.0959990
1781.5, 0.0961690
1782.11, 0.0960840
1782.72, 0.0959570
1783.33, 0.0960420
1783.95, 0.0960420
1784.56, 0.0959990
1785.18, 0.0961260
1785.79, 0.0962530
1786.41, 0.0961260
1787.02, 0.0960840
1787.64, 0.0962110
1788.26, 0.0962950
1788.87, 0.0962950
1789.49, 0.0962110
1790.11, 0.0962110
1790.73, 0.0962110
1791.35, 0.0962110
1791.96, 0.0962530
1792.58, 0.0963380
1793.21, 0.0962110
1793.83, 0.0961690
1794.45, 0.0962110
1795.07, 0.0962950
1795.69, 0.0964220
1796.31, 0.0963800
1796.93, 0.0963380
1797.56, 0.0962530
1798.18, 0.0963800
1798.8, 0.0965070
1799.43, 0.0962950
1800.05, 0.0961260
1800.68, 0.0962530
1801.3, 0.0962950
1801.93, 0.0963380
1802.56, 0.0962530
1803.18, 0.0963800
1803.81, 0.0965490
1804.44, 0.0966340
1805.07, 0.0967600
1805.7, 0.0966340
1806.33, 0.0963380
1806.95, 0.0963380
1807.58, 0.0964640
1808.22, 0.0965070
1808.85, 0.0964220
1809.48, 0.0963800
1810.11, 0.0965490
1810.74, 0.0966340
1811.38, 0.0965490
1812.01, 0.0965490
1812.64, 0.0966340
1813.28, 0.0966340
1813.91, 0.0966760
1814.55, 0.0966340
1815.18, 0.0965910
1815.82, 0.0965910
1816.45, 0.0966340
1817.09, 0.0966760
1817.73, 0.0966760
1818.36, 0.0966340
1819.0, 0.0965490
1819.64, 0.0965910
1820.28, 0.0967180
1820.92, 0.0968030
1821.56, 0.0967180
1822.2, 0.0965490
1822.84, 0.0965910
1823.48, 0.0968030
1824.12, 0.0969290
1824.76, 0.0968030
1825.41, 0.0967180
1826.05, 0.0968450
1826.69, 0.0968030
1827.34, 0.0967180
1827.98, 0.0967600
1828.63, 0.0968450
1829.27, 0.0968870
1829.92, 0.0969720
1830.56, 0.0968870
1831.21, 0.0968450
1831.86, 0.0970560
1832.5, 0.0971830
1833.15, 0.0971830
1833.8, 0.0971830
1834.45, 0.0971830
1835.1, 0.0973100
1835.75, 0.0972680
1836.4, 0.0971830
1837.05, 0.0971410
1837.7, 0.0970990
1838.35, 0.0970140
1839.01, 0.0970990
1839.66, 0.0971410
1840.31, 0.0971830
1840.96, 0.0971830
1841.62, 0.0973100
1842.27, 0.0974370
1842.93, 0.0974790
1843.58, 0.0973940
1844.24, 0.0975210
1844.9, 0.0974790
1845.55, 0.0973940
1846.21, 0.0974370
1846.87, 0.0973940
1847.53, 0.0974790
1848.18, 0.0976060
1848.84, 0.0976480
1849.5, 0.0976060
1850.16, 0.0975640
1850.82, 0.0976060
1851.48, 0.0976480
1852.14, 0.0977330
1852.81, 0.0976900
1853.47, 0.0976480
1854.13, 0.0977330
1854.8, 0.0978170
1855.46, 0.0979020
1856.12, 0.0979020
1856.79, 0.0977750
1857.45, 0.0978590
1858.12, 0.0980710
1858.79, 0.0978590
1859.45, 0.0977330
1860.12, 0.0979020
1860.79, 0.0979860
1861.46, 0.0979860
1862.12, 0.0980290
1862.79, 0.0981130
1863.46, 0.0979860
1864.13, 0.0978590
1864.8, 0.0979440
1865.48, 0.0980710
1866.15, 0.0980710
1866.82, 0.0980290
1867.49, 0.0979440
1868.16, 0.0979020
1868.84, 0.0980710
1869.51, 0.0980290
1870.19, 0.0978590
1870.86, 0.0978170
1871.54, 0.0979020
1872.21, 0.0978590
1872.89, 0.0978590
1873.56, 0.0978170
1874.24, 0.0977750
1874.92, 0.0979020
1875.6, 0.0980290
1876.28, 0.0980290
1876.96, 0.0980290
1877.64, 0.0979440
1878.32, 0.0979440
1879.0, 0.0978590
1879.68, 0.0978170
1880.36, 0.0979440
1881.04, 0.0979440
1881.73, 0.0979440
1882.41, 0.0979440
1883.09, 0.0979020
1883.78, 0.0977330
1884.46, 0.0978170
1885.15, 0.0979020
1885.83, 0.0980290
1886.52, 0.0980290
1887.21, 0.0979860
1887.89, 0.0978170
1888.58, 0.0978590
1889.27, 0.0978590
1889.96, 0.0979020
1890.65, 0.0978590
1891.34, 0.0978170
1892.03, 0.0977750
1892.72, 0.0977330
1893.41, 0.0976480
1894.1, 0.0977330
1894.79, 0.0979440
1895.49, 0.0980290
1896.18, 0.0979440
1896.87, 0.0978590
1897.57, 0.0979020
1898.26, 0.0978170
1898.96, 0.0976480
1899.65, 0.0976060
1900.35, 0.0977750
1901.05, 0.0979440
1901.74, 0.0979020
1902.44, 0.0978170
1903.14, 0.0977330
1903.84, 0.0978590
1904.54, 0.0978170
1905.24, 0.0976900
1905.94, 0.0976900
1906.64, 0.0978170
1907.34, 0.0978170
1908.04, 0.0976900
1908.75, 0.0976900
1909.45, 0.0977750
1910.15, 0.0978170
1910.86, 0.0979020
1911.56, 0.0978590
1912.27, 0.0976900
1912.97, 0.0976060
1913.68, 0.0977750
1914.39, 0.0979020
1915.09, 0.0978590
1915.8, 0.0979020
1916.51, 0.0980710
1917.22, 0.0981130
1917.93, 0.0982400
1918.64, 0.0981980
1919.35, 0.0980710
1920.06, 0.0980710
1920.77, 0.0981550
1921.48, 0.0981130
1922.19, 0.0980290
1922.91, 0.0981130
1923.62, 0.0981130
1924.33, 0.0981130
1925.05, 0.0981550
1925.76, 0.0982400
1926.48, 0.0983240
1927.19, 0.0982820
1927.91, 0.0982400
1928.63, 0.0983240
1929.35, 0.0984510
1930.07, 0.0982820
1930.78, 0.0981980
1931.5, 0.0982820
1932.22, 0.0983670
1932.94, 0.0983670
1933.66, 0.0982820
1934.39, 0.0984940
1935.11, 0.0985360
1935.83, 0.0984090
1936.55, 0.0985780
1937.28, 0.0985780
1938.0, 0.0984940
1938.73, 0.0985360
1939.45, 0.0985780
1940.18, 0.0986200
1940.9, 0.0986200
1941.63, 0.0985360
1942.36, 0.0986630
1943.09, 0.0987890
1943.81, 0.0987470
1944.54, 0.0986200
1945.27, 0.0986200
1946.0, 0.0986630
1946.73, 0.0986200
1947.47, 0.0986200
1948.2, 0.0987050
1948.93, 0.0988740
1949.66, 0.0990010
1950.4, 0.0990430
1951.13, 0.0989590
1951.86, 0.0989160
1952.6, 0.0990010
1953.34, 0.0990010
1954.07, 0.0988740
1954.81, 0.0988320
1955.55, 0.0988320
1956.29, 0.0989160
1957.02, 0.0987890
1957.76, 0.0987470
1958.5, 0.0989160
1959.24, 0.0991280
1959.98, 0.0990850
1960.72, 0.0989160
1961.47, 0.0989160
1962.21, 0.0990850
1962.95, 0.0991280
1963.7, 0.0990430
1964.44, 0.0990430
1965.18, 0.0990010
1965.93, 0.0988740
1966.67, 0.0988320
1967.42, 0.0987470
1968.17, 0.0989160
1968.92, 0.0990430
1969.66, 0.0990430
1970.41, 0.0990010
1971.16, 0.0989160
1971.91, 0.0990010
1972.66, 0.0990010
1973.41, 0.0989590
1974.16, 0.0989590
1974.92, 0.0991280
1975.67, 0.0992120
1976.42, 0.0990850
1977.18, 0.0989160
1977.93, 0.0989590
1978.69, 0.0989590
1979.44, 0.0990010
1980.2, 0.0990850
1980.95, 0.0991280
1981.71, 0.0989590
1982.47, 0.0989160
1983.23, 0.0990430
1983.99, 0.0990430
1984.74, 0.0989160
1985.51, 0.0990010
1986.27, 0.0990850
1987.03, 0.0990430
1987.79, 0.0990430
1988.55, 0.0991700
1989.32, 0.0990850
1990.08, 0.0990010
1990.84, 0.0990010
1991.61, 0.0989590
1992.37, 0.0990010
1993.14, 0.0990010
1993.9, 0.0990430
1994.67, 0.0990850
1995.44, 0.0991700
1996.21, 0.0992120
1996.98, 0.0992120
1997.75, 0.0990010
1998.52, 0.0990430
1999.29, 0.0992120
2000.06, 0.0992120
2000.83, 0.0990850
2001.6, 0.0990010
2002.38, 0.0990010
2003.15, 0.0990010
2003.93, 0.0990010
2004.7, 0.0991280
2005.48, 0.0993390
2006.25, 0.0992970
2007.03, 0.0992120
2007.81, 0.0993390
2008.58, 0.0995080
2009.36, 0.0994240
2010.14, 0.0992970
2010.92, 0.0992970
2011.7, 0.0993390
2012.48, 0.0992540
2013.26, 0.0992970
2014.05, 0.0994240
2014.83, 0.0996350
2015.61, 0.0996350
2016.4, 0.0995930
2017.18, 0.0995930
2017.97, 0.0995500
2018.75, 0.0995930
2019.54, 0.0997620
2020.32, 0.0997190
2021.11, 0.0996770
2021.9, 0.0998460
2022.69, 0.0998460
2023.48, 0.0998460
2024.27, 0.0999730
2025.06, 0.0999730
2025.85, 0.100015
2026.64, 0.0999730
2027.44, 0.0999310
2028.23, 0.100058
2029.02, 0.100227
2029.82, 0.100142
2030.61, 0.0999730
2031.41, 0.100058
2032.2, 0.100142
2033.0, 0.100227
2033.8, 0.100438
2034.6, 0.100480
2035.4, 0.100396
2036.2, 0.100311
2037.0, 0.100396
2037.8, 0.100311
2038.6, 0.100311
2039.4, 0.100311
2040.2, 0.100311
2041.01, 0.100311
2041.81, 0.100396
2042.61, 0.100438
2043.42, 0.100353
2044.22, 0.100353
2045.03, 0.100353
2045.84, 0.100269
2046.65, 0.100353
2047.46, 0.100523
2048.26, 0.100523
2049.07, 0.100523
2049.88, 0.100565
2050.69, 0.100480
2051.51, 0.100565
2052.32, 0.100607
2053.13, 0.100692
2053.94, 0.100649
2054.76, 0.100523
2055.57, 0.100396
2056.39, 0.100438
2057.2, 0.100607
2058.02, 0.100776
2058.84, 0.100692
2059.66, 0.100692
2060.48, 0.100692
2061.29, 0.100565
2062.11, 0.100649
2062.94, 0.100692
2063.76, 0.100649
2064.58, 0.100692
2065.4, 0.100776
2066.22, 0.100776
2067.05, 0.100734
2067.87, 0.100692
2068.7, 0.100692
2069.52, 0.100734
2070.35, 0.100649
2071.18, 0.100565
2072.0, 0.100523
2072.83, 0.100607
2073.66, 0.100607
2074.49, 0.100649
2075.32, 0.100649
2076.15, 0.100649
2076.98, 0.100480
2077.82, 0.100565
2078.65, 0.100523
2079.48, 0.100438
2080.32, 0.100480
2081.15, 0.100649
2081.99, 0.100649
2082.83, 0.100607
2083.66, 0.100565
2084.5, 0.100523
2085.34, 0.100649
2086.18, 0.100692
2087.02, 0.100776
2087.86, 0.100734
2088.7, 0.100565
2089.54, 0.100396
2090.39, 0.100311
2091.23, 0.100438
2092.07, 0.100607
2092.92, 0.100649
2093.76, 0.100523
2094.61, 0.100438
2095.45, 0.100523
2096.3, 0.100565
2097.15, 0.100649
2098.0, 0.100692
2098.85, 0.100692
2099.7, 0.100649
2100.55, 0.100734
2101.4, 0.100734
2102.25, 0.100565
2103.1, 0.100438
2103.96, 0.100480
2104.81, 0.100565
2105.67, 0.100734
2106.52, 0.100861
