Database of Origin, USGS Spectral Database
Sample Description, See USGS database for additional info
Date Added,2017-07-03 06:06:55.071873

Data ID,USGS_lim02          
Sample ID, limonite_hs41.12897
Mineral Name, limonite
Material Class,Hydroxide

Wavelength
1499.61, 0.164842
1500.04, 0.165461
1500.48, 0.165616
1500.91, 0.165978
1501.35, 0.166288
1501.78, 0.166442
1502.22, 0.166804
1502.65, 0.167579
1503.09, 0.167682
1503.53, 0.168043
1503.96, 0.168611
1504.4, 0.168766
1504.83, 0.169334
1505.27, 0.169799
1505.71, 0.170057
1506.15, 0.169954
1506.58, 0.170006
1507.02, 0.170419
1507.46, 0.170522
1507.9, 0.170780
1508.34, 0.171555
1508.78, 0.171762
1509.21, 0.172123
1509.66, 0.172485
1510.09, 0.172639
1510.53, 0.173156
1510.97, 0.173879
1511.42, 0.174292
1511.86, 0.174292
1512.3, 0.174189
1512.74, 0.174344
1513.18, 0.174757
1513.62, 0.175170
1514.06, 0.175480
1514.51, 0.176100
1514.95, 0.176358
1515.39, 0.176254
1515.83, 0.177029
1516.28, 0.177752
1516.72, 0.178217
1517.16, 0.178372
1517.61, 0.178527
1518.05, 0.179095
1518.5, 0.179198
1518.94, 0.179766
1519.39, 0.179869
1519.83, 0.180076
1520.28, 0.180592
1520.73, 0.180902
1521.17, 0.181625
1521.62, 0.181832
1522.07, 0.182400
1522.51, 0.183071
1522.96, 0.183484
1523.41, 0.183588
1523.85, 0.183588
1524.3, 0.183639
1524.75, 0.184207
1525.2, 0.184982
1525.65, 0.185189
1526.1, 0.185034
1526.55, 0.185653
1527.0, 0.186273
1527.45, 0.186531
1527.9, 0.186841
1528.35, 0.187306
1528.8, 0.187512
1529.25, 0.187667
1529.7, 0.188235
1530.15, 0.188339
1530.6, 0.188184
1531.05, 0.188597
1531.51, 0.189062
1531.96, 0.189268
1532.41, 0.189630
1532.87, 0.190043
1533.32, 0.190611
1533.77, 0.191334
1534.23, 0.191437
1534.68, 0.191334
1535.14, 0.191954
1535.59, 0.192315
1536.05, 0.192625
1536.5, 0.193141
1536.96, 0.193606
1537.41, 0.193864
1537.87, 0.193916
1538.32, 0.194278
1538.78, 0.194381
1539.24, 0.194278
1539.7, 0.194742
1540.15, 0.195259
1540.61, 0.196188
1541.07, 0.196601
1541.53, 0.196860
1541.98, 0.197118
1542.44, 0.197118
1542.9, 0.196911
1543.36, 0.197066
1543.82, 0.198099
1544.28, 0.198512
1544.74, 0.198461
1545.2, 0.198874
1545.66, 0.199184
1546.12, 0.199080
1546.59, 0.199235
1547.05, 0.199752
1547.51, 0.200010
1547.97, 0.200010
1548.43, 0.200113
1548.9, 0.200630
1549.36, 0.201559
1549.82, 0.201972
1550.29, 0.202024
1550.75, 0.202437
1551.21, 0.202953
1551.68, 0.203212
1552.14, 0.203521
1552.61, 0.203521
1553.07, 0.203418
1553.54, 0.203676
1554.0, 0.204141
1554.47, 0.204296
1554.93, 0.203986
1555.4, 0.204193
1555.87, 0.205071
1556.34, 0.205897
1556.8, 0.206104
1557.27, 0.206000
1557.74, 0.206207
1558.21, 0.206413
1558.68, 0.206672
1559.14, 0.206723
1559.61, 0.206827
1560.08, 0.207653
1560.55, 0.207963
1561.02, 0.207911
1561.49, 0.208066
1561.96, 0.208118
1562.43, 0.208324
1562.9, 0.208944
1563.38, 0.209615
1563.85, 0.209719
1564.32, 0.209564
1564.79, 0.209564
1565.26, 0.209512
1565.74, 0.209770
1566.21, 0.210080
1566.68, 0.210183
1567.16, 0.210390
1567.63, 0.210751
1568.1, 0.210906
1568.58, 0.211216
1569.05, 0.211578
1569.53, 0.211939
1570.0, 0.212197
1570.48, 0.212249
1570.96, 0.212197
1571.43, 0.212404
1571.91, 0.212714
1572.39, 0.213127
1572.86, 0.213282
1573.34, 0.213024
1573.82, 0.212869
1574.3, 0.213179
1574.77, 0.213540
1575.25, 0.213592
1575.73, 0.213695
1576.21, 0.213798
1576.69, 0.213850
1577.17, 0.214160
1577.65, 0.214779
1578.13, 0.214779
1578.61, 0.214625
1579.09, 0.214883
1579.57, 0.215141
1580.05, 0.215193
1580.54, 0.215244
1581.02, 0.215451
1581.5, 0.215554
1581.98, 0.215606
1582.47, 0.215709
1582.95, 0.215916
1583.43, 0.216071
1583.92, 0.216535
1584.4, 0.216535
1584.88, 0.216380
1585.37, 0.216897
1585.85, 0.217258
1586.34, 0.217310
1586.82, 0.217465
1587.31, 0.217465
1587.8, 0.217465
1588.28, 0.217671
1588.77, 0.217723
1589.26, 0.217878
1589.74, 0.218136
1590.23, 0.217930
1590.72, 0.217878
1591.21, 0.217981
1591.7, 0.218239
1592.19, 0.218394
1592.67, 0.218394
1593.16, 0.218343
1593.65, 0.218498
1594.14, 0.218962
1594.63, 0.219117
1595.12, 0.219066
1595.61, 0.219169
1596.11, 0.219272
1596.6, 0.219272
1597.09, 0.219272
1597.58, 0.219376
1598.08, 0.219427
1598.57, 0.219479
1599.06, 0.219634
1599.55, 0.219944
1600.05, 0.219944
1600.54, 0.219892
1601.04, 0.220202
1601.53, 0.220254
1602.03, 0.220254
1602.52, 0.220357
1603.02, 0.220408
1603.51, 0.220667
1604.01, 0.220822
1604.5, 0.220667
1605.0, 0.220512
1605.5, 0.220615
1606.0, 0.220770
1606.49, 0.221183
1606.99, 0.221183
1607.49, 0.221131
1607.99, 0.221545
1608.49, 0.221803
1608.99, 0.221545
1609.49, 0.221596
1609.99, 0.221958
1610.49, 0.222113
1610.99, 0.222061
1611.49, 0.221854
1611.99, 0.221699
1612.49, 0.221958
1612.99, 0.222061
1613.49, 0.221958
1614.0, 0.222009
1614.5, 0.222061
1615.0, 0.222216
1615.51, 0.222474
1616.01, 0.222526
1616.51, 0.222577
1617.02, 0.222629
1617.52, 0.222371
1618.03, 0.222268
1618.53, 0.222268
1619.04, 0.222164
1619.54, 0.222577
1620.05, 0.223094
1620.55, 0.223197
1621.06, 0.223094
1621.57, 0.222887
1622.08, 0.222629
1622.58, 0.223042
1623.09, 0.223455
1623.6, 0.223352
1624.11, 0.223249
1624.62, 0.223094
1625.13, 0.223042
1625.64, 0.223300
1626.15, 0.223300
1626.66, 0.223094
1627.17, 0.223197
1627.68, 0.223455
1628.19, 0.223714
1628.7, 0.223765
1629.21, 0.223765
1629.72, 0.224023
1630.24, 0.223972
1630.75, 0.223868
1631.26, 0.224023
1631.78, 0.224178
1632.29, 0.224178
1632.8, 0.224230
1633.32, 0.224385
1633.83, 0.224178
1634.35, 0.223868
1634.86, 0.223972
1635.38, 0.224333
1635.9, 0.224333
1636.41, 0.223972
1636.93, 0.223920
1637.45, 0.224333
1637.96, 0.224333
1638.48, 0.224385
1639.0, 0.224437
1639.52, 0.224437
1640.04, 0.224488
1640.56, 0.224643
1641.08, 0.224591
1641.59, 0.224540
1642.11, 0.224488
1642.63, 0.224540
1643.16, 0.224643
1643.68, 0.224695
1644.2, 0.224746
1644.72, 0.224798
1645.24, 0.224850
1645.76, 0.225056
1646.29, 0.225108
1646.81, 0.224953
1647.33, 0.224953
1647.86, 0.225056
1648.38, 0.225108
1648.9, 0.225005
1649.43, 0.224953
1649.95, 0.224953
1650.48, 0.224953
1651.0, 0.224901
1651.53, 0.224850
1652.06, 0.225108
1652.58, 0.225108
1653.11, 0.225160
1653.64, 0.225469
1654.17, 0.225728
1654.69, 0.225469
1655.22, 0.225211
1655.75, 0.225314
1656.28, 0.225676
1656.81, 0.225986
1657.34, 0.226037
1657.87, 0.225883
1658.4, 0.225418
1658.93, 0.225314
1659.46, 0.225573
1659.99, 0.225831
1660.52, 0.225883
1661.05, 0.225779
1661.59, 0.225624
1662.12, 0.225728
1662.65, 0.225934
1663.19, 0.226037
1663.72, 0.226296
1664.26, 0.226399
1664.79, 0.226192
1665.32, 0.226089
1665.86, 0.226451
1666.39, 0.226502
1666.93, 0.226502
1667.47, 0.226451
1668.0, 0.226451
1668.54, 0.226502
1669.08, 0.226451
1669.61, 0.226451
1670.15, 0.226657
1670.69, 0.226760
1671.23, 0.226864
1671.77, 0.227019
1672.31, 0.227122
1672.85, 0.227328
1673.39, 0.227328
1673.93, 0.227277
1674.47, 0.227277
1675.01, 0.227070
1675.55, 0.227174
1676.09, 0.227432
1676.64, 0.227432
1677.18, 0.227535
1677.72, 0.227587
1678.26, 0.227793
1678.81, 0.227948
1679.35, 0.227845
1679.89, 0.227638
1680.44, 0.227793
1680.98, 0.227845
1681.53, 0.227948
1682.07, 0.228361
1682.62, 0.228723
1683.17, 0.228826
1683.71, 0.228671
1684.26, 0.228361
1684.81, 0.228465
1685.36, 0.228568
1685.9, 0.228465
1686.45, 0.228465
1687.0, 0.228826
1687.55, 0.229084
1688.1, 0.228878
1688.65, 0.228723
1689.2, 0.228878
1689.75, 0.229291
1690.3, 0.229394
1690.85, 0.229239
1691.41, 0.229343
1691.96, 0.229394
1692.51, 0.229394
1693.06, 0.229291
1693.61, 0.229136
1694.17, 0.229446
1694.72, 0.229704
1695.28, 0.229704
1695.83, 0.229549
1696.39, 0.229446
1696.94, 0.229549
1697.5, 0.229704
1698.05, 0.229859
1698.61, 0.229911
1699.17, 0.229962
1699.72, 0.230014
1700.28, 0.230117
1700.84, 0.230324
1701.4, 0.230272
1701.95, 0.230220
1702.51, 0.230272
1703.07, 0.230272
1703.63, 0.230324
1704.19, 0.230375
1704.75, 0.230427
1705.31, 0.230427
1705.88, 0.230634
1706.44, 0.230685
1707.0, 0.230582
1707.56, 0.230634
1708.12, 0.230530
1708.69, 0.230582
1709.25, 0.230892
1709.81, 0.231047
1710.38, 0.230943
1710.94, 0.230892
1711.51, 0.231047
1712.07, 0.231098
1712.64, 0.230737
1713.2, 0.230634
1713.77, 0.230892
1714.34, 0.231150
1714.9, 0.230995
1715.47, 0.230840
1716.04, 0.230892
1716.61, 0.231098
1717.18, 0.231253
1717.74, 0.231150
1718.31, 0.231253
1718.88, 0.231150
1719.45, 0.231202
1720.02, 0.231253
1720.59, 0.231202
1721.17, 0.231253
1721.74, 0.231460
1722.31, 0.231511
1722.88, 0.231408
1723.45, 0.231511
1724.03, 0.231615
1724.6, 0.231511
1725.18, 0.231511
1725.75, 0.231511
1726.33, 0.231511
1726.9, 0.231511
1727.48, 0.231563
1728.05, 0.231563
1728.63, 0.231615
1729.2, 0.231718
1729.78, 0.231718
1730.36, 0.231718
1730.94, 0.231821
1731.51, 0.231770
1732.09, 0.231666
1732.67, 0.231925
1733.25, 0.232131
1733.83, 0.232080
1734.41, 0.231925
1734.99, 0.231873
1735.57, 0.231873
1736.15, 0.231873
1736.73, 0.231873
1737.32, 0.231976
1737.9, 0.232028
1738.48, 0.231925
1739.07, 0.231821
1739.65, 0.231925
1740.23, 0.231976
1740.82, 0.232131
1741.4, 0.232234
1741.99, 0.232234
1742.57, 0.232286
1743.16, 0.232286
1743.74, 0.232183
1744.33, 0.232234
1744.92, 0.232338
1745.51, 0.232234
1746.09, 0.232131
1746.68, 0.232028
1747.27, 0.231976
1747.86, 0.232028
1748.45, 0.232028
1749.04, 0.232028
1749.63, 0.232338
1750.22, 0.232493
1750.81, 0.232493
1751.4, 0.232441
1751.99, 0.232441
1752.59, 0.232389
1753.18, 0.232389
1753.77, 0.232493
1754.37, 0.232493
1754.96, 0.232596
1755.56, 0.232596
1756.15, 0.232493
1756.74, 0.232596
1757.34, 0.232493
1757.94, 0.232544
1758.53, 0.232596
1759.13, 0.232648
1759.73, 0.232596
1760.32, 0.232751
1760.92, 0.232957
1761.52, 0.233009
1762.12, 0.232906
1762.72, 0.232854
1763.32, 0.232854
1763.92, 0.232699
1764.52, 0.232854
1765.12, 0.233112
1765.72, 0.232957
1766.32, 0.232699
1766.92, 0.232751
1767.53, 0.232906
1768.13, 0.233009
1768.73, 0.233061
1769.34, 0.233164
1769.94, 0.233216
1770.55, 0.233267
1771.15, 0.233319
1771.76, 0.233164
1772.36, 0.233061
1772.97, 0.233164
1773.57, 0.233164
1774.18, 0.233267
1774.79, 0.233474
1775.4, 0.233629
1776.0, 0.233732
1776.61, 0.233629
1777.22, 0.233526
1777.83, 0.233371
1778.44, 0.233422
1779.05, 0.233629
1779.66, 0.233732
1780.27, 0.233784
1780.88, 0.233835
1781.5, 0.233887
1782.11, 0.233939
1782.72, 0.233835
1783.33, 0.233835
1783.95, 0.233835
1784.56, 0.233680
1785.18, 0.233835
1785.79, 0.234042
1786.41, 0.234145
1787.02, 0.234145
1787.64, 0.234094
1788.26, 0.234042
1788.87, 0.234042
1789.49, 0.234249
1790.11, 0.234249
1790.73, 0.234197
1791.35, 0.234042
1791.96, 0.234145
1792.58, 0.234352
1793.21, 0.234403
1793.83, 0.234403
1794.45, 0.234403
1795.07, 0.234249
1795.69, 0.234352
1796.31, 0.234558
1796.93, 0.234662
1797.56, 0.234662
1798.18, 0.234713
1798.8, 0.234868
1799.43, 0.234765
1800.05, 0.234507
1800.68, 0.234558
1801.3, 0.234713
1801.93, 0.234817
1802.56, 0.234817
1803.18, 0.234817
1803.81, 0.235023
1804.44, 0.235126
1805.07, 0.235178
1805.7, 0.235178
1806.33, 0.235126
1806.95, 0.235126
1807.58, 0.235126
1808.22, 0.235126
1808.85, 0.235281
1809.48, 0.235436
1810.11, 0.235540
1810.74, 0.235591
1811.38, 0.235643
1812.01, 0.235591
1812.64, 0.235385
1813.28, 0.235436
1813.91, 0.235694
1814.55, 0.235694
1815.18, 0.235694
1815.82, 0.235798
1816.45, 0.235849
1817.09, 0.235953
1817.73, 0.236159
1818.36, 0.236056
1819.0, 0.236004
1819.64, 0.235901
1820.28, 0.235436
1820.92, 0.235643
1821.56, 0.235798
1822.2, 0.236056
1822.84, 0.236263
1823.48, 0.236366
1824.12, 0.236417
1824.76, 0.236521
1825.41, 0.236366
1826.05, 0.235901
1826.69, 0.236211
1827.34, 0.236727
1827.98, 0.236727
1828.63, 0.236624
1829.27, 0.236521
1829.92, 0.236521
1830.56, 0.236469
1831.21, 0.236521
1831.86, 0.236779
1832.5, 0.236934
1833.15, 0.236934
1833.8, 0.236986
1834.45, 0.236882
1835.1, 0.236831
1835.75, 0.236779
1836.4, 0.236779
1837.05, 0.236882
1837.7, 0.236934
1838.35, 0.237605
1839.01, 0.237502
1839.66, 0.237037
1840.31, 0.237450
1840.96, 0.237554
1841.62, 0.237037
1842.27, 0.237295
1842.93, 0.237760
1843.58, 0.237812
1844.24, 0.237967
1844.9, 0.237967
1845.55, 0.237915
1846.21, 0.237605
1846.87, 0.237244
1847.53, 0.237450
1848.18, 0.237605
1848.84, 0.237967
1849.5, 0.238225
1850.16, 0.238277
1850.82, 0.238432
1851.48, 0.238432
1852.14, 0.238225
1852.81, 0.237967
1853.47, 0.237657
1854.13, 0.237915
1854.8, 0.238483
1855.46, 0.238535
1856.12, 0.238225
1856.79, 0.238018
1857.45, 0.238432
1858.12, 0.238586
1858.79, 0.238225
1859.45, 0.237709
1860.12, 0.237915
1860.79, 0.238328
1861.46, 0.238690
1862.12, 0.238845
1862.79, 0.238638
1863.46, 0.238432
1864.13, 0.238328
1864.8, 0.238328
1865.48, 0.238586
1866.15, 0.238483
1866.82, 0.238018
1867.49, 0.237605
1868.16, 0.237812
1868.84, 0.237967
1869.51, 0.237863
1870.19, 0.237502
1870.86, 0.237037
1871.54, 0.237502
1872.21, 0.237295
1872.89, 0.236624
1873.56, 0.236882
1874.24, 0.237140
1874.92, 0.236986
1875.6, 0.236831
1876.28, 0.236469
1876.96, 0.236159
1877.64, 0.236263
1878.32, 0.236211
1879.0, 0.236159
1879.68, 0.236004
1880.36, 0.235849
1881.04, 0.235488
1881.73, 0.235178
1882.41, 0.235023
1883.09, 0.234610
1883.78, 0.233939
1884.46, 0.233680
1885.15, 0.233732
1885.83, 0.233577
1886.52, 0.233112
1887.21, 0.233009
1887.89, 0.232957
1888.58, 0.232751
1889.27, 0.231976
1889.96, 0.231305
1890.65, 0.231253
1891.34, 0.231150
1892.03, 0.230995
1892.72, 0.230737
1893.41, 0.230375
1894.1, 0.230220
1894.79, 0.230014
1895.49, 0.229549
1896.18, 0.229239
1896.87, 0.228620
1897.57, 0.228051
1898.26, 0.227897
1898.96, 0.227380
1899.65, 0.226760
1900.35, 0.226709
1901.05, 0.226657
1901.74, 0.226244
1902.44, 0.225366
1903.14, 0.225005
1903.84, 0.224953
1904.54, 0.224385
1905.24, 0.223817
1905.94, 0.223610
1906.64, 0.223352
1907.34, 0.223042
1908.04, 0.222887
1908.75, 0.222836
1909.45, 0.222474
1910.15, 0.221958
1910.86, 0.221596
1911.56, 0.221183
1912.27, 0.220822
1912.97, 0.220305
1913.68, 0.219944
1914.39, 0.220047
1915.09, 0.220150
1915.8, 0.219789
1916.51, 0.219376
1917.22, 0.219376
1917.93, 0.219221
1918.64, 0.219014
1919.35, 0.218601
1920.06, 0.217981
1920.77, 0.217775
1921.48, 0.218136
1922.19, 0.218394
1922.91, 0.218033
1923.62, 0.217568
1924.33, 0.217620
1925.05, 0.217568
1925.76, 0.217362
1926.48, 0.217207
1927.19, 0.217103
1927.91, 0.216948
1928.63, 0.216742
1929.35, 0.216793
1930.07, 0.216845
1930.78, 0.216948
1931.5, 0.216948
1932.22, 0.216793
1932.94, 0.216535
1933.66, 0.216484
1934.39, 0.216587
1935.11, 0.216484
1935.83, 0.216329
1936.55, 0.216380
1937.28, 0.216432
1938.0, 0.216329
1938.73, 0.216225
1939.45, 0.216277
1940.18, 0.216535
1940.9, 0.216484
1941.63, 0.216484
1942.36, 0.216587
1943.09, 0.216587
1943.81, 0.216484
1944.54, 0.216484
1945.27, 0.216535
1946.0, 0.216587
1946.73, 0.216587
1947.47, 0.216587
1948.2, 0.216587
1948.93, 0.216587
1949.66, 0.216587
1950.4, 0.216742
1951.13, 0.216948
1951.86, 0.216742
1952.6, 0.216639
1953.34, 0.216845
1954.07, 0.216845
1954.81, 0.216793
1955.55, 0.216948
1956.29, 0.217103
1957.02, 0.217103
1957.76, 0.217000
1958.5, 0.217052
1959.24, 0.217207
1959.98, 0.217362
1960.72, 0.217362
1961.47, 0.217465
1962.21, 0.217568
1962.95, 0.217465
1963.7, 0.217465
1964.44, 0.217620
1965.18, 0.217620
1965.93, 0.217516
1966.67, 0.217516
1967.42, 0.217671
1968.17, 0.217826
1968.92, 0.217775
1969.66, 0.217826
1970.41, 0.217878
1971.16, 0.217671
1971.91, 0.217620
1972.66, 0.217723
1973.41, 0.217775
1974.16, 0.217826
1974.92, 0.217878
1975.67, 0.217826
1976.42, 0.217878
1977.18, 0.217930
1977.93, 0.218033
1978.69, 0.217981
1979.44, 0.217930
1980.2, 0.217981
1980.95, 0.217930
1981.71, 0.217930
1982.47, 0.217930
1983.23, 0.217878
1983.99, 0.217981
1984.74, 0.218136
1985.51, 0.217981
1986.27, 0.217878
1987.03, 0.217981
1987.79, 0.217981
1988.55, 0.217930
1989.32, 0.217878
1990.08, 0.217878
1990.84, 0.217878
1991.61, 0.217878
1992.37, 0.217930
1993.14, 0.217930
1993.9, 0.218033
1994.67, 0.218033
1995.44, 0.218085
1996.21, 0.218136
1996.98, 0.218085
1997.75, 0.218188
1998.52, 0.218343
1999.29, 0.218343
2000.06, 0.218343
2000.83, 0.218394
2001.6, 0.218549
2002.38, 0.218498
2003.15, 0.218343
2003.93, 0.218446
2004.7, 0.218549
2005.48, 0.218601
2006.25, 0.218808
2007.03, 0.218962
2007.81, 0.219014
2008.58, 0.219169
2009.36, 0.219117
2010.14, 0.219169
2010.92, 0.219272
2011.7, 0.219324
2012.48, 0.219479
2013.26, 0.219634
2014.05, 0.219737
2014.83, 0.219944
2015.61, 0.220099
2016.4, 0.219995
2017.18, 0.219995
2017.97, 0.220202
2018.75, 0.220408
2019.54, 0.220822
2020.32, 0.221028
2021.11, 0.221131
2021.9, 0.221286
2022.69, 0.221338
2023.48, 0.221441
2024.27, 0.221751
2025.06, 0.222061
2025.85, 0.222164
2026.64, 0.222371
2027.44, 0.222629
2028.23, 0.222784
2029.02, 0.222991
2029.82, 0.223300
2030.61, 0.223662
2031.41, 0.223868
2032.2, 0.223972
2033.0, 0.224023
2033.8, 0.224333
2034.6, 0.224488
2035.4, 0.224540
2036.2, 0.224901
2037.0, 0.225160
2037.8, 0.225366
2038.6, 0.225521
2039.4, 0.225831
2040.2, 0.226037
2041.01, 0.226399
2041.81, 0.226760
2042.61, 0.226812
2043.42, 0.226967
2044.22, 0.227225
2045.03, 0.227535
2045.84, 0.227897
2046.65, 0.227948
2047.46, 0.228155
2048.26, 0.228568
2049.07, 0.228723
2049.88, 0.228929
2050.69, 0.229343
2051.51, 0.229497
2052.32, 0.229756
2053.13, 0.230014
2053.94, 0.230169
2054.76, 0.230375
2055.57, 0.230685
2056.39, 0.230892
2057.2, 0.231047
2058.02, 0.231202
2058.84, 0.231357
2059.66, 0.231563
2060.48, 0.231821
2061.29, 0.232131
2062.11, 0.232080
2062.94, 0.232080
2063.76, 0.232493
2064.58, 0.232854
2065.4, 0.232906
2066.22, 0.233112
2067.05, 0.233371
2067.87, 0.233422
2068.7, 0.233577
2069.52, 0.233784
2070.35, 0.234042
2071.18, 0.234094
2072.0, 0.234094
2072.83, 0.234094
2073.66, 0.234249
2074.49, 0.234352
2075.32, 0.234558
2076.15, 0.234817
2076.98, 0.234971
2077.82, 0.235126
2078.65, 0.235126
2079.48, 0.235075
2080.32, 0.235178
2081.15, 0.235178
2081.99, 0.235230
2082.83, 0.235230
2083.66, 0.235385
2084.5, 0.235488
2085.34, 0.235488
2086.18, 0.235643
2087.02, 0.235849
2087.86, 0.236004
2088.7, 0.236056
2089.54, 0.236004
2090.39, 0.236004
2091.23, 0.236056
2092.07, 0.236056
2092.92, 0.236056
2093.76, 0.236056
2094.61, 0.236211
2095.45, 0.236263
2096.3, 0.236263
2097.15, 0.236159
2098.0, 0.236263
2098.85, 0.236314
2099.7, 0.236417
2100.55, 0.236469
2101.4, 0.236521
2102.25, 0.236469
2103.1, 0.236469
2103.96, 0.236624
2104.81, 0.236624
2105.67, 0.236572
2106.52, 0.236521
2107.38, 0.236366
2108.24, 0.236314
2109.09, 0.236572
2109.95, 0.236624
2110.81, 0.236521
2111.67, 0.236521
2112.53, 0.236417
2113.39, 0.236521
2114.25, 0.236521
2115.12, 0.236521
2115.98, 0.236417
2116.84, 0.236417
2117.71, 0.236469
2118.58, 0.236314
2119.44, 0.236314
2120.31, 0.236366
2121.18, 0.236314
2122.04, 0.236263
2122.91, 0.236211
2123.78, 0.236159
2124.65, 0.236211
2125.52, 0.236108
2126.4, 0.235849
2127.27, 0.235746
2128.14, 0.235849
2129.02, 0.235849
2129.89, 0.235694
2130.77, 0.235540
2131.64, 0.235591
2132.52, 0.235385
2133.4, 0.235333
2134.27, 0.235333
2135.15, 0.235281
2136.03, 0.235230
2136.91, 0.235023
2137.79, 0.234920
2138.68, 0.234971
2139.56, 0.234817
2140.44, 0.234713
2141.33, 0.234713
2142.21, 0.234713
2143.1, 0.234558
2143.99, 0.234403
2144.87, 0.234300
2145.76, 0.234197
2146.65, 0.234094
2147.54, 0.234042
