Database of Origin, USGS Spectral Database
Sample Description, See USGS database for additional info
Date Added,2016-08-03 21:29:03.858063

Data ID,USGS_cup02          
Sample ID, cuprite_hs127.6651
Mineral Name, cuprite
Material Class,Oxide

Wavelength
1587.8, 0.161340
1588.28, 0.162165
1588.77, 0.162341
1589.26, 0.162282
1589.74, 0.162459
1590.23, 0.162695
1590.72, 0.162636
1591.21, 0.162872
1591.7, 0.162989
1592.19, 0.162813
1592.67, 0.162695
1593.16, 0.162989
1593.65, 0.163697
1594.14, 0.163579
1594.63, 0.163343
1595.12, 0.163697
1595.61, 0.163638
1596.11, 0.163343
1596.6, 0.163579
1597.09, 0.163991
1597.58, 0.164050
1598.08, 0.163697
1598.57, 0.163991
1599.06, 0.164286
1599.55, 0.164639
1600.05, 0.164875
1600.54, 0.164816
1601.04, 0.164934
1601.53, 0.165111
1602.03, 0.165111
1602.52, 0.165052
1603.02, 0.165347
1603.51, 0.165405
1604.01, 0.165347
1604.5, 0.165582
1605.0, 0.165700
1605.5, 0.165523
1606.0, 0.165877
1606.49, 0.166230
1606.99, 0.166348
1607.49, 0.166230
1607.99, 0.166407
1608.49, 0.166466
1608.99, 0.166348
1609.49, 0.166407
1609.99, 0.166761
1610.49, 0.166996
1610.99, 0.166820
1611.49, 0.166761
1611.99, 0.167173
1612.49, 0.167291
1612.99, 0.167291
1613.49, 0.167762
1614.0, 0.167880
1614.5, 0.167409
1615.0, 0.167586
1615.51, 0.167527
1616.01, 0.167409
1616.51, 0.167880
1617.02, 0.168470
1617.52, 0.168411
1618.03, 0.168175
1618.53, 0.168234
1619.04, 0.168411
1619.54, 0.168646
1620.05, 0.168941
1620.55, 0.169000
1621.06, 0.168882
1621.57, 0.168823
1622.08, 0.169059
1622.58, 0.169118
1623.09, 0.169353
1623.6, 0.169589
1624.11, 0.169766
1624.62, 0.169707
1625.13, 0.169648
1625.64, 0.169648
1626.15, 0.169884
1626.66, 0.169884
1627.17, 0.169766
1627.68, 0.169707
1628.19, 0.169943
1628.7, 0.170178
1629.21, 0.170002
1629.72, 0.170178
1630.24, 0.170532
1630.75, 0.170709
1631.26, 0.171121
1631.78, 0.171121
1632.29, 0.170709
1632.8, 0.170532
1633.32, 0.170591
1633.83, 0.170886
1634.35, 0.171239
1634.86, 0.171593
1635.38, 0.172005
1635.9, 0.172005
1636.41, 0.171475
1636.93, 0.171593
1637.45, 0.172005
1637.96, 0.171946
1638.48, 0.171887
1639.0, 0.172064
1639.52, 0.172477
1640.04, 0.172653
1640.56, 0.172594
1641.08, 0.172418
1641.59, 0.172594
1642.11, 0.172771
1642.63, 0.172712
1643.16, 0.172653
1643.68, 0.173066
1644.2, 0.173478
1644.72, 0.173478
1645.24, 0.173125
1645.76, 0.173007
1646.29, 0.173184
1646.81, 0.173184
1647.33, 0.173596
1647.86, 0.174244
1648.38, 0.174068
1648.9, 0.174009
1649.43, 0.174127
1649.95, 0.174185
1650.48, 0.174244
1651.0, 0.174244
1651.53, 0.174480
1652.06, 0.174775
1652.58, 0.174834
1653.11, 0.174951
1653.64, 0.174775
1654.17, 0.174834
1654.69, 0.175010
1655.22, 0.175069
1655.75, 0.175187
1656.28, 0.175423
1656.81, 0.175600
1657.34, 0.175718
1657.87, 0.175600
1658.4, 0.175541
1658.93, 0.175776
1659.46, 0.176012
1659.99, 0.176248
1660.52, 0.176425
1661.05, 0.176189
1661.59, 0.175776
1662.12, 0.176012
1662.65, 0.176130
1663.19, 0.176071
1663.72, 0.176307
1664.26, 0.176484
1664.79, 0.176366
1665.32, 0.176542
1665.86, 0.176719
1666.39, 0.177014
1666.93, 0.177073
1667.47, 0.176837
1668.0, 0.176955
1668.54, 0.177250
1669.08, 0.177250
1669.61, 0.177367
1670.15, 0.177250
1670.69, 0.177309
1671.23, 0.177721
1671.77, 0.177780
1672.31, 0.177780
1672.85, 0.178075
1673.39, 0.178016
1673.93, 0.177898
1674.47, 0.178369
1675.01, 0.178369
1675.55, 0.178310
1676.09, 0.178369
1676.64, 0.178369
1677.18, 0.178546
1677.72, 0.178841
1678.26, 0.178664
1678.81, 0.178546
1679.35, 0.178782
1679.89, 0.179194
1680.44, 0.179253
1680.98, 0.179017
1681.53, 0.179135
1682.07, 0.179430
1682.62, 0.179371
1683.17, 0.179194
1683.71, 0.179253
1684.26, 0.179548
1684.81, 0.179607
1685.36, 0.179548
1685.9, 0.179960
1686.45, 0.179666
1687.0, 0.179371
1687.55, 0.179842
1688.1, 0.180196
1688.65, 0.180019
1689.2, 0.180078
1689.75, 0.180196
1690.3, 0.180314
1690.85, 0.180314
1691.41, 0.180432
1691.96, 0.180491
1692.51, 0.180549
1693.06, 0.180785
1693.61, 0.180785
1694.17, 0.180844
1694.72, 0.181021
1695.28, 0.180903
1695.83, 0.180726
1696.39, 0.180903
1696.94, 0.181198
1697.5, 0.181610
1698.05, 0.181669
1698.61, 0.181257
1699.17, 0.181080
1699.72, 0.181433
1700.28, 0.181728
1700.84, 0.181846
1701.4, 0.182082
1701.95, 0.182199
1702.51, 0.182258
1703.07, 0.182082
1703.63, 0.182140
1704.19, 0.182140
1704.75, 0.182140
1705.31, 0.182199
1705.88, 0.182376
1706.44, 0.182376
1707.0, 0.182199
1707.56, 0.182258
1708.12, 0.182494
1708.69, 0.182730
1709.25, 0.182612
1709.81, 0.182553
1710.38, 0.182730
1710.94, 0.182965
1711.51, 0.183142
1712.07, 0.183260
1712.64, 0.183319
1713.2, 0.183437
1713.77, 0.183260
1714.34, 0.183319
1714.9, 0.183731
1715.47, 0.183790
1716.04, 0.183437
1716.61, 0.183260
1717.18, 0.183437
1717.74, 0.183555
1718.31, 0.183614
1718.88, 0.184085
1719.45, 0.184439
1720.02, 0.184380
1720.59, 0.184380
1721.17, 0.184203
1721.74, 0.183790
1722.31, 0.184085
1722.88, 0.184556
1723.45, 0.184439
1724.03, 0.184321
1724.6, 0.184498
1725.18, 0.184498
1725.75, 0.184556
1726.33, 0.184674
1726.9, 0.184615
1727.48, 0.184733
1728.05, 0.184674
1728.63, 0.185087
1729.2, 0.185499
1729.78, 0.185146
1730.36, 0.184969
1730.94, 0.185322
1731.51, 0.185499
1732.09, 0.185499
1732.67, 0.185440
1733.25, 0.185617
1733.83, 0.185676
1734.41, 0.185381
1734.99, 0.185617
1735.57, 0.185912
1736.15, 0.185735
1736.73, 0.185617
1737.32, 0.185794
1737.9, 0.185971
1738.48, 0.186088
1739.07, 0.186030
1739.65, 0.186147
1740.23, 0.186030
1740.82, 0.185794
1741.4, 0.186030
1741.99, 0.186383
1742.57, 0.186442
1743.16, 0.186619
1743.74, 0.186678
1744.33, 0.186796
1744.92, 0.186678
1745.51, 0.186913
1746.09, 0.187267
1746.68, 0.187208
1747.27, 0.187090
1747.86, 0.187031
1748.45, 0.187149
1749.04, 0.187385
1749.63, 0.187562
1750.22, 0.187326
1750.81, 0.187149
1751.4, 0.187444
1751.99, 0.187679
1752.59, 0.187738
1753.18, 0.187679
1753.77, 0.187679
1754.37, 0.187738
1754.96, 0.188033
1755.56, 0.188210
1756.15, 0.188151
1756.74, 0.188092
1757.34, 0.188210
1757.94, 0.188210
1758.53, 0.188151
1759.13, 0.188269
1759.73, 0.188151
1760.32, 0.188210
1760.92, 0.188210
1761.52, 0.188151
1762.12, 0.188504
1762.72, 0.188858
1763.32, 0.188858
1763.92, 0.188858
1764.52, 0.188622
1765.12, 0.188563
1765.72, 0.188858
1766.32, 0.189094
1766.92, 0.189035
1767.53, 0.189094
1768.13, 0.189094
1768.73, 0.189271
1769.34, 0.189447
1769.94, 0.189329
1770.55, 0.189094
1771.15, 0.189153
1771.76, 0.189271
1772.36, 0.189447
1772.97, 0.189683
1773.57, 0.189742
1774.18, 0.189506
1774.79, 0.189388
1775.4, 0.189565
1776.0, 0.189801
1776.61, 0.189860
1777.22, 0.190037
1777.83, 0.190095
1778.44, 0.190213
1779.05, 0.190154
1779.66, 0.190037
1780.27, 0.190037
1780.88, 0.190095
1781.5, 0.190213
1782.11, 0.190095
1782.72, 0.190154
1783.33, 0.190449
1783.95, 0.190508
1784.56, 0.190331
1785.18, 0.190331
1785.79, 0.190626
1786.41, 0.190920
1787.02, 0.190803
1787.64, 0.190744
1788.26, 0.190685
1788.87, 0.190685
1789.49, 0.190626
1790.11, 0.190626
1790.73, 0.190803
1791.35, 0.190626
1791.96, 0.190626
1792.58, 0.190861
1793.21, 0.190920
1793.83, 0.190920
1794.45, 0.191038
1795.07, 0.191097
1795.69, 0.191215
1796.31, 0.191333
1796.93, 0.191569
1797.56, 0.191451
1798.18, 0.191392
1798.8, 0.191333
1799.43, 0.191451
1800.05, 0.191686
1800.68, 0.191745
1801.3, 0.191863
1801.93, 0.191863
1802.56, 0.191863
1803.18, 0.191745
1803.81, 0.191922
1804.44, 0.191863
1805.07, 0.191569
1805.7, 0.191686
1806.33, 0.191922
1806.95, 0.192040
1807.58, 0.192217
1808.22, 0.192158
1808.85, 0.192217
1809.48, 0.192335
1810.11, 0.192394
1810.74, 0.192511
1811.38, 0.192453
1812.01, 0.192453
1812.64, 0.192688
1813.28, 0.192806
1813.91, 0.192865
1814.55, 0.192983
1815.18, 0.193042
1815.82, 0.192924
1816.45, 0.192747
1817.09, 0.192806
1817.73, 0.192865
1818.36, 0.192983
1819.0, 0.193042
1819.64, 0.193101
1820.28, 0.193042
1820.92, 0.192983
1821.56, 0.193160
1822.2, 0.193454
1822.84, 0.193631
1823.48, 0.193513
1824.12, 0.193454
1824.76, 0.193454
1825.41, 0.193336
1826.05, 0.193219
1826.69, 0.193513
1827.34, 0.193926
1827.98, 0.193808
1828.63, 0.193867
1829.27, 0.194044
1829.92, 0.194220
1830.56, 0.194161
1831.21, 0.194161
1831.86, 0.194338
1832.5, 0.194338
1833.15, 0.194161
1833.8, 0.194102
1834.45, 0.194161
1835.1, 0.194102
1835.75, 0.193985
1836.4, 0.193985
1837.05, 0.194161
1837.7, 0.194220
1838.35, 0.194397
1839.01, 0.194279
1839.66, 0.194161
1840.31, 0.194279
1840.96, 0.194515
1841.62, 0.194574
1842.27, 0.194868
1842.93, 0.194986
1843.58, 0.194692
1844.24, 0.194574
1844.9, 0.194574
1845.55, 0.194574
1846.21, 0.194515
1846.87, 0.194574
1847.53, 0.194692
1848.18, 0.194633
1848.84, 0.194868
1849.5, 0.195163
1850.16, 0.195104
1850.82, 0.195045
1851.48, 0.195222
1852.14, 0.195045
1852.81, 0.194927
1853.47, 0.194986
1854.13, 0.195222
1854.8, 0.195340
1855.46, 0.195399
1856.12, 0.195222
1856.79, 0.195163
1857.45, 0.195281
1858.12, 0.195163
1858.79, 0.195104
1859.45, 0.195281
1860.12, 0.195399
1860.79, 0.195340
1861.46, 0.195635
1862.12, 0.195870
1862.79, 0.195811
1863.46, 0.195870
1864.13, 0.195870
1864.8, 0.196106
1865.48, 0.196106
1866.15, 0.195752
1866.82, 0.195517
1867.49, 0.195458
1868.16, 0.195635
1868.84, 0.195693
1869.51, 0.195635
1870.19, 0.195635
1870.86, 0.195576
1871.54, 0.196047
1872.21, 0.196047
1872.89, 0.195752
1873.56, 0.195693
1874.24, 0.195693
1874.92, 0.195752
1875.6, 0.195929
1876.28, 0.195811
1876.96, 0.195752
1877.64, 0.195929
1878.32, 0.196047
1879.0, 0.196106
1879.68, 0.195870
1880.36, 0.195988
1881.04, 0.195988
1881.73, 0.196047
1882.41, 0.196047
1883.09, 0.195811
1883.78, 0.195693
1884.46, 0.195929
1885.15, 0.195752
1885.83, 0.195517
1886.52, 0.195752
1887.21, 0.195988
1887.89, 0.195870
1888.58, 0.196047
1889.27, 0.195870
1889.96, 0.195693
1890.65, 0.195870
1891.34, 0.195929
1892.03, 0.195811
1892.72, 0.195752
1893.41, 0.195635
1894.1, 0.195693
1894.79, 0.195870
1895.49, 0.195752
1896.18, 0.195635
1896.87, 0.195635
1897.57, 0.195399
1898.26, 0.195104
1898.96, 0.195340
1899.65, 0.195517
1900.35, 0.195340
1901.05, 0.195281
1901.74, 0.195517
1902.44, 0.195517
1903.14, 0.195517
1903.84, 0.195576
1904.54, 0.195281
1905.24, 0.195104
1905.94, 0.195222
1906.64, 0.195340
1907.34, 0.195281
1908.04, 0.195340
1908.75, 0.195517
1909.45, 0.195399
1910.15, 0.195281
1910.86, 0.195281
1911.56, 0.195517
1912.27, 0.195693
1912.97, 0.195576
1913.68, 0.195576
1914.39, 0.195458
1915.09, 0.195458
1915.8, 0.195576
1916.51, 0.195693
1917.22, 0.195752
1917.93, 0.195693
1918.64, 0.195576
1919.35, 0.195635
1920.06, 0.195576
1920.77, 0.195693
1921.48, 0.195929
1922.19, 0.195929
1922.91, 0.195929
1923.62, 0.196047
1924.33, 0.196106
1925.05, 0.196224
1925.76, 0.196283
1926.48, 0.196224
1927.19, 0.196518
1927.91, 0.196518
1928.63, 0.196224
1929.35, 0.196106
1930.07, 0.196224
1930.78, 0.196459
1931.5, 0.196577
1932.22, 0.196459
1932.94, 0.196518
1933.66, 0.196695
1934.39, 0.196636
1935.11, 0.196518
1935.83, 0.196577
1936.55, 0.196813
1937.28, 0.196990
1938.0, 0.196931
1938.73, 0.196872
1939.45, 0.196813
1940.18, 0.197049
1940.9, 0.197108
1941.63, 0.197049
1942.36, 0.197108
1943.09, 0.197049
1943.81, 0.196931
1944.54, 0.197108
1945.27, 0.197284
1946.0, 0.197461
1946.73, 0.197343
1947.47, 0.197167
1948.2, 0.197226
1948.93, 0.197402
1949.66, 0.197579
1950.4, 0.197697
1951.13, 0.197638
1951.86, 0.197638
1952.6, 0.197697
1953.34, 0.197638
1954.07, 0.197697
1954.81, 0.197756
1955.55, 0.197638
1956.29, 0.197461
1957.02, 0.197520
1957.76, 0.197638
1958.5, 0.197579
1959.24, 0.197756
1959.98, 0.197933
1960.72, 0.197874
1961.47, 0.197992
1962.21, 0.197992
1962.95, 0.198050
1963.7, 0.198286
1964.44, 0.198463
1965.18, 0.198463
1965.93, 0.198286
1966.67, 0.198286
1967.42, 0.198109
1968.17, 0.197992
1968.92, 0.198286
1969.66, 0.198463
1970.41, 0.198345
1971.16, 0.198168
1971.91, 0.198404
1972.66, 0.198640
1973.41, 0.198817
1974.16, 0.198875
1974.92, 0.198758
1975.67, 0.198758
1976.42, 0.198817
1977.18, 0.198817
1977.93, 0.198817
1978.69, 0.198875
1979.44, 0.198758
1980.2, 0.198640
1980.95, 0.198934
1981.71, 0.199111
1982.47, 0.198934
1983.23, 0.198934
1983.99, 0.198934
1984.74, 0.199052
1985.51, 0.199052
1986.27, 0.198934
1987.03, 0.198875
1987.79, 0.199111
1988.55, 0.199288
1989.32, 0.199170
1990.08, 0.199111
1990.84, 0.199111
1991.61, 0.199229
1992.37, 0.199465
1993.14, 0.199406
1993.9, 0.199406
1994.67, 0.199524
1995.44, 0.199524
1996.21, 0.199524
1996.98, 0.199465
1997.75, 0.199524
1998.52, 0.199583
1999.29, 0.199700
2000.06, 0.199759
2000.83, 0.199818
2001.6, 0.199818
2002.38, 0.199818
2003.15, 0.199936
2003.93, 0.199995
2004.7, 0.199936
2005.48, 0.199936
2006.25, 0.199877
2007.03, 0.199818
2007.81, 0.200054
2008.58, 0.200172
2009.36, 0.200231
2010.14, 0.200349
2010.92, 0.200231
2011.7, 0.200113
2012.48, 0.200231
2013.26, 0.200349
2014.05, 0.200290
2014.83, 0.200113
2015.61, 0.200290
2016.4, 0.200525
2017.18, 0.200584
2017.97, 0.200525
2018.75, 0.200408
2019.54, 0.200525
2020.32, 0.200761
2021.11, 0.200525
2021.9, 0.200466
2022.69, 0.200820
2023.48, 0.200820
2024.27, 0.200643
2025.06, 0.200643
2025.85, 0.200702
2026.64, 0.200879
2027.44, 0.200702
2028.23, 0.200584
2029.02, 0.200643
2029.82, 0.200761
2030.61, 0.200879
2031.41, 0.200643
2032.2, 0.200584
2033.0, 0.200761
2033.8, 0.200879
2034.6, 0.200938
2035.4, 0.201056
2036.2, 0.201174
2037.0, 0.200997
2037.8, 0.201174
2038.6, 0.201056
2039.4, 0.200938
2040.2, 0.201115
2041.01, 0.201291
2041.81, 0.201056
2042.61, 0.201056
2043.42, 0.201233
2044.22, 0.201527
2045.03, 0.201527
2045.84, 0.201468
2046.65, 0.201409
2047.46, 0.201468
2048.26, 0.201645
2049.07, 0.201822
2049.88, 0.201763
2050.69, 0.201586
2051.51, 0.201468
2052.32, 0.201350
2053.13, 0.201409
2053.94, 0.201763
2054.76, 0.201763
2055.57, 0.201763
2056.39, 0.201940
2057.2, 0.201881
2058.02, 0.201645
2058.84, 0.201468
2059.66, 0.201527
2060.48, 0.201586
2061.29, 0.201763
2062.11, 0.201999
2062.94, 0.201881
2063.76, 0.201999
2064.58, 0.202116
2065.4, 0.202175
2066.22, 0.202352
2067.05, 0.202234
2067.87, 0.201999
2068.7, 0.201999
2069.52, 0.201940
2070.35, 0.202057
2071.18, 0.202175
2072.0, 0.202116
2072.83, 0.202293
2073.66, 0.202234
2074.49, 0.201999
2075.32, 0.201881
2076.15, 0.201999
2076.98, 0.202057
2077.82, 0.202175
2078.65, 0.202175
2079.48, 0.202175
2080.32, 0.202293
2081.15, 0.202470
2081.99, 0.202588
2082.83, 0.202647
2083.66, 0.202706
2084.5, 0.202647
2085.34, 0.202588
2086.18, 0.202647
2087.02, 0.202647
2087.86, 0.202765
2088.7, 0.202823
2089.54, 0.202941
2090.39, 0.202941
2091.23, 0.202706
2092.07, 0.202647
2092.92, 0.202647
2093.76, 0.202823
2094.61, 0.202882
2095.45, 0.202882
2096.3, 0.202765
2097.15, 0.202823
2098.0, 0.202882
2098.85, 0.203059
2099.7, 0.203059
2100.55, 0.202882
2101.4, 0.202941
2102.25, 0.203118
2103.1, 0.203059
2103.96, 0.203000
2104.81, 0.203118
2105.67, 0.203177
2106.52, 0.203000
2107.38, 0.202882
2108.24, 0.203118
2109.09, 0.203413
2109.95, 0.203295
2110.81, 0.203177
2111.67, 0.203236
2112.53, 0.203413
2113.39, 0.203413
2114.25, 0.203236
2115.12, 0.203236
2115.98, 0.203354
2116.84, 0.203354
2117.71, 0.203354
2118.58, 0.203413
2119.44, 0.203472
2120.31, 0.203707
2121.18, 0.203825
2122.04, 0.203766
2122.91, 0.203825
2123.78, 0.203825
2124.65, 0.203707
2125.52, 0.203707
2126.4, 0.203884
2127.27, 0.203825
2128.14, 0.203766
2129.02, 0.203766
2129.89, 0.203766
2130.77, 0.203943
2131.64, 0.203884
2132.52, 0.203884
2133.4, 0.203825
2134.27, 0.203825
2135.15, 0.203766
2136.03, 0.203943
2136.91, 0.204179
2137.79, 0.204238
2138.68, 0.204238
2139.56, 0.204002
2140.44, 0.203943
2141.33, 0.204002
2142.21, 0.203884
2143.1, 0.203707
2143.99, 0.203825
2144.87, 0.204002
2145.76, 0.204120
2146.65, 0.203943
2147.54, 0.203884
2148.43, 0.204061
2149.32, 0.204179
2150.21, 0.204002
2151.1, 0.203943
2151.99, 0.204061
2152.89, 0.204179
2153.78, 0.204002
2154.68, 0.203884
2155.57, 0.203707
2156.47, 0.203707
2157.37, 0.203766
2158.27, 0.203707
2159.16, 0.203590
2160.06, 0.203531
2160.96, 0.203472
2161.86, 0.203472
2162.77, 0.203531
2163.67, 0.203531
2164.57, 0.203472
2165.48, 0.203354
2166.38, 0.203354
2167.29, 0.203472
2168.2, 0.203354
2169.1, 0.203236
2170.01, 0.203177
2170.92, 0.203118
2171.83, 0.203236
2172.74, 0.203059
2173.65, 0.203059
2174.56, 0.202941
2175.47, 0.202882
2176.39, 0.202882
2177.3, 0.202823
2178.22, 0.202823
2179.13, 0.202823
2180.05, 0.202823
2180.96, 0.202823
2181.88, 0.202706
2182.8, 0.202588
2183.72, 0.202647
2184.64, 0.202706
2185.56, 0.202529
2186.48, 0.202175
2187.41, 0.202116
2188.33, 0.202057
2189.25, 0.202057
2190.18, 0.201940
2191.1, 0.201940
2192.03, 0.201940
2192.96, 0.201763
2193.89, 0.201704
2194.82, 0.201763
2195.74, 0.201586
2196.68, 0.201350
2197.61, 0.201233
2198.54, 0.201233
2199.47, 0.201115
2200.4, 0.200938
2201.34, 0.200879
2202.28, 0.200879
2203.21, 0.200643
2204.15, 0.200466
2205.08, 0.200231
2206.02, 0.200054
2206.96, 0.199936
2207.9, 0.199877
2208.84, 0.199936
2209.78, 0.199877
2210.73, 0.199641
2211.67, 0.199406
2212.61, 0.199524
2213.56, 0.199700
2214.5, 0.199524
2215.45, 0.199229
2216.4, 0.199170
2217.35, 0.199229
2218.3, 0.198604
2219.24, 0.198448
2220.2, 0.198812
2221.15, 0.198812
2222.1, 0.199021
2223.05, 0.199229
2224.0, 0.199125
2224.96, 0.199229
2225.91, 0.199385
2226.87, 0.199437
2227.83, 0.199333
2228.79, 0.199229
2229.74, 0.199281
2230.7, 0.198969
2231.66, 0.198708
2232.63, 0.198864
2233.59, 0.198552
2234.55, 0.198552
2235.51, 0.198500
2236.48, 0.198604
2237.44, 0.198760
2238.41, 0.198500
2239.38, 0.198031
2240.34, 0.197875
2241.31, 0.197875
2242.28, 0.198031
2243.25, 0.198135
2244.22, 0.198240
2245.19, 0.197979
2246.17, 0.197823
2247.14, 0.197771
2248.12, 0.197354
2249.09, 0.197042
2250.07, 0.196938
2251.04, 0.196782
2252.02, 0.196677
2253.0, 0.196000
2253.98, 0.195636
2254.96, 0.195428
2255.94, 0.195167
2256.92, 0.195115
2257.91, 0.195115
2258.89, 0.195063
2259.88, 0.195115
2260.86, 0.194855
2261.85, 0.194542
2262.83, 0.194178
2263.82, 0.194074
2264.81, 0.193918
2265.8, 0.193813
2266.79, 0.193866
2267.78, 0.194022
2268.78, 0.194126
2269.77, 0.194282
2270.76, 0.194334
2271.76, 0.194595
2272.75, 0.194803
2273.75, 0.194542
2274.75, 0.194126
2275.75, 0.194282
2276.75, 0.194699
2277.75, 0.194907
2278.75, 0.195011
2279.75, 0.194855
2280.75, 0.194907
2281.76, 0.195376
2282.76, 0.195428
2283.77, 0.195324
2284.77, 0.195584
2285.78, 0.195896
2286.79, 0.195844
2287.8, 0.196365
2288.81, 0.196573
2289.82, 0.196469
2290.83, 0.196886
2291.84, 0.197146
2292.86, 0.197094
2293.87, 0.196990
2294.89, 0.197250
2295.91, 0.197511
2296.92, 0.197875
2297.94, 0.198135
2298.96, 0.198396
2299.98, 0.198500
2301.0, 0.198188
2302.02, 0.198240
2303.04, 0.198604
2304.07, 0.198708
2305.09, 0.198448
2306.12, 0.198656
2307.15, 0.198917
2308.17, 0.198917
2309.2, 0.199281
2310.23, 0.199385
2311.26, 0.199073
2312.29, 0.199073
2313.32, 0.199333
2314.35, 0.199593
2315.39, 0.199593
2316.42, 0.199437
2317.46, 0.199229
2318.5, 0.199229
2319.53, 0.199021
2320.57, 0.199177
2321.61, 0.199385
2322.65, 0.199385
2323.69, 0.199385
2324.73, 0.199125
2325.78, 0.198969
2326.82, 0.199229
2327.86, 0.199229
2328.91, 0.198864
2329.96, 0.198864
2331.01, 0.198812
2332.05, 0.198604
2333.1, 0.198500
2334.15, 0.198240
