Database of Origin, USGS Spectral Database
Sample Description, See USGS database for additional info
Date Added,2016-08-10 05:17:20.439480

Data ID,USGS_non04          
Sample ID, nontronite_ng1.16064
Mineral Name, nontronite
Material Class,Phyllosilicate

Wavelength
1389.48, 0.275171
1389.85, 0.275013
1390.23, 0.274644
1390.6, 0.274063
1390.97, 0.273220
1391.35, 0.272481
1391.72, 0.271532
1392.09, 0.270478
1392.47, 0.270267
1392.84, 0.270952
1393.21, 0.271005
1393.59, 0.269950
1393.96, 0.269106
1394.34, 0.268210
1394.71, 0.267103
1395.09, 0.266522
1395.46, 0.266259
1395.84, 0.265468
1396.22, 0.264835
1396.59, 0.264677
1396.97, 0.264097
1397.35, 0.263306
1397.72, 0.262726
1398.1, 0.262040
1398.48, 0.261249
1398.85, 0.260933
1399.23, 0.260036
1399.61, 0.258929
1399.99, 0.258138
1400.37, 0.257610
1400.74, 0.256661
1401.12, 0.255870
1401.5, 0.255343
1401.88, 0.255132
1402.26, 0.254604
1402.64, 0.253866
1403.02, 0.253391
1403.4, 0.253022
1403.78, 0.251862
1404.16, 0.250860
1404.54, 0.250122
1404.92, 0.249278
1405.3, 0.248962
1405.68, 0.248856
1406.06, 0.248382
1406.44, 0.247801
1406.83, 0.247169
1407.21, 0.246483
1407.59, 0.246219
1407.97, 0.246325
1408.35, 0.245798
1408.74, 0.244954
1409.12, 0.244374
1409.5, 0.244163
1409.89, 0.243794
1410.27, 0.243161
1410.65, 0.242792
1411.04, 0.242739
1411.42, 0.242581
1411.81, 0.242212
1412.19, 0.241948
1412.58, 0.241737
1412.96, 0.241421
1413.35, 0.241051
1413.73, 0.240260
1414.12, 0.239628
1414.5, 0.239469
1414.89, 0.239628
1415.28, 0.239839
1415.66, 0.240155
1416.05, 0.239839
1416.44, 0.239786
1416.82, 0.240155
1417.21, 0.239997
1417.6, 0.239628
1417.98, 0.239417
1418.37, 0.239628
1418.76, 0.239944
1419.15, 0.239839
1419.54, 0.239891
1419.93, 0.239628
1420.32, 0.239258
1420.71, 0.239417
1421.09, 0.239364
1421.48, 0.238784
1421.88, 0.238784
1422.27, 0.239153
1422.66, 0.238784
1423.05, 0.238309
1423.44, 0.238309
1423.83, 0.238362
1424.22, 0.238256
1424.61, 0.237940
1425.0, 0.237676
1425.39, 0.237676
1425.78, 0.237624
1426.18, 0.237307
1426.57, 0.237202
1426.96, 0.236833
1427.36, 0.236463
1427.75, 0.236463
1428.14, 0.235936
1428.54, 0.235145
1428.93, 0.234723
1429.32, 0.234670
1429.72, 0.234618
1430.11, 0.234565
1430.51, 0.234249
1430.9, 0.233879
1431.3, 0.233669
1431.69, 0.233669
1432.09, 0.233563
1432.48, 0.233194
1432.88, 0.233247
1433.28, 0.233510
1433.67, 0.233510
1434.07, 0.233405
1434.46, 0.233458
1434.86, 0.233721
1435.26, 0.234090
1435.66, 0.234723
1436.05, 0.235303
1436.45, 0.235409
1436.85, 0.235620
1437.25, 0.236094
1437.65, 0.236569
1438.05, 0.237360
1438.44, 0.238204
1438.84, 0.238837
1439.24, 0.239311
1439.64, 0.240155
1440.04, 0.241210
1440.44, 0.241948
1440.84, 0.242528
1441.24, 0.243214
1441.65, 0.244005
1442.05, 0.244954
1442.45, 0.245745
1442.85, 0.246483
1443.25, 0.247221
1443.65, 0.247854
1444.05, 0.248751
1444.46, 0.249647
1444.86, 0.250227
1445.26, 0.250702
1445.67, 0.251546
1446.07, 0.252389
1446.47, 0.252759
1446.88, 0.253128
1447.28, 0.253813
1447.68, 0.254235
1448.09, 0.254921
1448.49, 0.255764
1448.9, 0.256028
1449.3, 0.256450
1449.71, 0.256819
1450.11, 0.257083
1450.52, 0.257452
1450.93, 0.257927
1451.33, 0.258296
1451.74, 0.258559
1452.14, 0.258823
1452.55, 0.259087
1452.96, 0.259456
1453.36, 0.259350
1453.77, 0.259667
1454.18, 0.259983
1454.59, 0.259931
1455.0, 0.259878
1455.41, 0.260247
1455.81, 0.260511
1456.22, 0.260563
1456.63, 0.260722
1457.04, 0.260933
1457.45, 0.260933
1457.86, 0.260827
1458.27, 0.260827
1458.68, 0.261302
1459.09, 0.261354
1459.5, 0.261196
1459.91, 0.261460
1460.32, 0.261513
1460.74, 0.261143
1461.15, 0.261143
1461.56, 0.261407
1461.97, 0.261143
1462.39, 0.261038
1462.8, 0.261038
1463.21, 0.261143
1463.62, 0.261407
1464.04, 0.261618
1464.45, 0.261829
1464.86, 0.261882
1465.28, 0.261565
1465.69, 0.261671
1466.11, 0.261776
1466.52, 0.261724
1466.94, 0.261987
1467.35, 0.261934
1467.77, 0.261776
1468.18, 0.261618
1468.6, 0.261882
1469.02, 0.262198
1469.43, 0.262304
1469.85, 0.262462
1470.27, 0.262673
1470.68, 0.263147
1471.1, 0.263358
1471.52, 0.263042
1471.94, 0.262884
1472.35, 0.263147
1472.77, 0.263411
1473.19, 0.263569
1473.61, 0.263569
1474.03, 0.263569
1474.45, 0.263833
1474.87, 0.264149
1475.29, 0.264360
1475.71, 0.264571
1476.13, 0.264677
1476.55, 0.264677
1476.97, 0.264571
1477.39, 0.264624
1477.81, 0.265099
1478.23, 0.264993
1478.65, 0.264993
1479.07, 0.265257
1479.5, 0.265679
1479.92, 0.265995
1480.34, 0.266048
1480.76, 0.265890
1481.19, 0.265995
1481.61, 0.266048
1482.03, 0.265942
1482.46, 0.266417
1482.88, 0.267050
1483.31, 0.267103
1483.73, 0.267050
1484.16, 0.267050
1484.58, 0.267208
1485.01, 0.267050
1485.43, 0.267103
1485.86, 0.267261
1486.28, 0.267366
1486.71, 0.267735
1487.14, 0.267735
1487.56, 0.267630
1487.99, 0.267894
1488.42, 0.268104
1488.84, 0.267999
1489.27, 0.267894
1489.7, 0.268368
1490.13, 0.268368
1490.56, 0.268526
1490.98, 0.268474
1491.41, 0.268474
1491.84, 0.268790
1492.27, 0.269001
1492.7, 0.268895
1493.13, 0.268895
1493.56, 0.269054
1493.99, 0.269370
1494.42, 0.269423
1494.85, 0.269423
1495.29, 0.269528
1495.72, 0.269634
1496.15, 0.269792
1496.58, 0.270161
1497.01, 0.270319
1497.44, 0.270267
1497.88, 0.269950
1498.31, 0.270161
1498.74, 0.270161
1499.18, 0.270056
1499.61, 0.270319
1500.04, 0.270530
1500.48, 0.270794
1500.91, 0.271005
1501.35, 0.271163
1501.78, 0.271163
1502.22, 0.271110
1502.65, 0.271427
1503.09, 0.271532
1503.53, 0.271269
1503.96, 0.271110
1504.4, 0.271532
1504.83, 0.271796
1505.27, 0.271532
1505.71, 0.271479
1506.15, 0.271585
1506.58, 0.271638
1507.02, 0.271690
1507.46, 0.271690
1507.9, 0.272271
1508.34, 0.272745
1508.78, 0.272481
1509.21, 0.272060
1509.66, 0.272218
1510.09, 0.272323
1510.53, 0.272534
1510.97, 0.272692
1511.42, 0.272640
1511.86, 0.272798
1512.3, 0.273114
1512.74, 0.273009
1513.18, 0.273009
1513.62, 0.273114
1514.06, 0.272956
1514.51, 0.273114
1514.95, 0.273325
1515.39, 0.273272
1515.83, 0.273431
1516.28, 0.273589
1516.72, 0.273747
1517.16, 0.273694
1517.61, 0.273853
1518.05, 0.274116
1518.5, 0.274116
1518.94, 0.274116
1519.39, 0.274063
1519.83, 0.274011
1520.28, 0.274011
1520.73, 0.274116
1521.17, 0.274327
1521.62, 0.274485
1522.07, 0.274380
1522.51, 0.274433
1522.96, 0.274327
1523.41, 0.274591
1523.85, 0.274907
1524.3, 0.274907
1524.75, 0.275065
1525.2, 0.275224
1525.65, 0.274960
1526.1, 0.275013
1526.55, 0.275276
1527.0, 0.275382
1527.45, 0.275224
1527.9, 0.275171
1528.35, 0.275224
1528.8, 0.275224
1529.25, 0.275171
1529.7, 0.275487
1530.15, 0.275698
1530.6, 0.275646
1531.05, 0.275646
1531.51, 0.275962
1531.96, 0.276278
1532.41, 0.276120
1532.87, 0.275962
1533.32, 0.276173
1533.77, 0.276437
1534.23, 0.276437
1534.68, 0.276331
1535.14, 0.276489
1535.59, 0.276648
1536.05, 0.276753
1536.5, 0.276858
1536.96, 0.276911
1537.41, 0.276964
1537.87, 0.277228
1538.32, 0.277228
1538.78, 0.277175
1539.24, 0.277280
1539.7, 0.277439
1540.15, 0.277597
1540.61, 0.277491
1541.07, 0.277280
1541.53, 0.277491
1541.98, 0.277913
1542.44, 0.278071
1542.9, 0.278124
1543.36, 0.278177
1543.82, 0.278177
1544.28, 0.278282
1544.74, 0.278282
1545.2, 0.278388
1545.66, 0.278441
1546.12, 0.278388
1546.59, 0.278441
1547.05, 0.278599
1547.51, 0.278599
1547.97, 0.278862
1548.43, 0.279073
1548.9, 0.278968
1549.36, 0.278968
1549.82, 0.279021
1550.29, 0.279126
1550.75, 0.279442
1551.21, 0.279759
1551.68, 0.279864
1552.14, 0.279864
1552.61, 0.279917
1553.07, 0.280128
1553.54, 0.280075
1554.0, 0.280075
1554.47, 0.280075
1554.93, 0.279970
1555.4, 0.280075
1555.87, 0.280181
1556.34, 0.280286
1556.8, 0.280392
1557.27, 0.280392
1557.74, 0.280761
1558.21, 0.281077
1558.68, 0.281077
1559.14, 0.281235
1559.61, 0.281025
1560.08, 0.281130
1560.55, 0.281341
1561.02, 0.281446
1561.49, 0.281499
1561.96, 0.281446
1562.43, 0.281710
1562.9, 0.281974
1563.38, 0.281974
1563.85, 0.282026
1564.32, 0.282290
1564.79, 0.282448
1565.26, 0.282448
1565.74, 0.282237
1566.21, 0.282396
1566.68, 0.282501
1567.16, 0.282396
1567.63, 0.282501
1568.1, 0.282607
1568.58, 0.282765
1569.05, 0.283028
1569.53, 0.283134
1570.0, 0.283292
1570.48, 0.283345
1570.96, 0.283081
1571.43, 0.282870
1571.91, 0.283239
1572.39, 0.283556
1572.86, 0.283345
1573.34, 0.283450
1573.82, 0.283767
1574.3, 0.283819
1574.77, 0.283925
1575.25, 0.284083
1575.73, 0.284136
1576.21, 0.284083
1576.69, 0.284030
1577.17, 0.284083
1577.65, 0.284241
1578.13, 0.284558
1578.61, 0.284347
1579.09, 0.284347
1579.57, 0.284558
1580.05, 0.284611
1580.54, 0.284663
1581.02, 0.284874
1581.5, 0.285032
1581.98, 0.285085
1582.47, 0.285138
1582.95, 0.285191
1583.43, 0.285191
1583.92, 0.285296
1584.4, 0.285296
1584.88, 0.285454
1585.37, 0.285876
1585.85, 0.285718
1586.34, 0.285612
1586.82, 0.285665
1587.31, 0.285560
1587.8, 0.285507
1588.28, 0.285718
1588.77, 0.285771
1589.26, 0.285876
1589.74, 0.285929
1590.23, 0.286087
1590.72, 0.286193
1591.21, 0.286298
1591.7, 0.286720
1592.19, 0.286720
1592.67, 0.286562
1593.16, 0.286720
1593.65, 0.286720
1594.14, 0.286825
1594.63, 0.286931
1595.12, 0.286984
1595.61, 0.287089
1596.11, 0.287353
1596.6, 0.287722
1597.09, 0.287669
1597.58, 0.287564
1598.08, 0.287564
1598.57, 0.287669
1599.06, 0.287933
1599.55, 0.288038
1600.05, 0.288091
1600.54, 0.288249
1601.04, 0.288460
1601.53, 0.288618
1602.03, 0.288671
1602.52, 0.288407
1603.02, 0.288407
1603.51, 0.288460
1604.01, 0.288460
1604.5, 0.288566
1605.0, 0.288724
1605.5, 0.288829
1606.0, 0.288882
1606.49, 0.288882
1606.99, 0.288935
1607.49, 0.289093
1607.99, 0.289304
1608.49, 0.289515
1608.99, 0.289620
1609.49, 0.289831
1609.99, 0.289937
1610.49, 0.289831
1610.99, 0.289937
1611.49, 0.290095
1611.99, 0.290200
1612.49, 0.290359
1612.99, 0.290622
1613.49, 0.290675
1614.0, 0.290517
1614.5, 0.290411
1615.0, 0.290570
1615.51, 0.290833
1616.01, 0.290622
1616.51, 0.290464
1617.02, 0.290728
1617.52, 0.290939
1618.03, 0.290939
1618.53, 0.290991
1619.04, 0.291308
1619.54, 0.291308
1620.05, 0.291150
1620.55, 0.291308
1621.06, 0.291466
1621.57, 0.291519
1622.08, 0.291571
1622.58, 0.291888
1623.09, 0.292099
1623.6, 0.292257
1624.11, 0.292310
1624.62, 0.292310
1625.13, 0.292468
1625.64, 0.292573
1626.15, 0.292573
1626.66, 0.292468
1627.17, 0.292521
1627.68, 0.292679
1628.19, 0.292784
1628.7, 0.293101
1629.21, 0.293364
1629.72, 0.293417
1630.24, 0.293417
1630.75, 0.293470
1631.26, 0.293523
1631.78, 0.293523
1632.29, 0.293681
1632.8, 0.293786
1633.32, 0.293523
1633.83, 0.293628
1634.35, 0.294050
1634.86, 0.294208
1635.38, 0.294314
1635.9, 0.294208
1636.41, 0.294366
1636.93, 0.294683
1637.45, 0.294788
1637.96, 0.294683
1638.48, 0.294472
1639.0, 0.294525
1639.52, 0.294947
1640.04, 0.295052
1640.56, 0.295157
1641.08, 0.295157
1641.59, 0.294999
1642.11, 0.294999
1642.63, 0.295210
1643.16, 0.295527
1643.68, 0.295421
1644.2, 0.295421
1644.72, 0.295738
1645.24, 0.295790
1645.76, 0.295790
1646.29, 0.295949
1646.81, 0.296054
1647.33, 0.295896
1647.86, 0.295949
1648.38, 0.296370
1648.9, 0.296476
1649.43, 0.296318
1649.95, 0.296318
1650.48, 0.296318
1651.0, 0.296370
1651.53, 0.296423
1652.06, 0.296529
1652.58, 0.296898
1653.11, 0.296950
1653.64, 0.296792
1654.17, 0.296740
1654.69, 0.296687
1655.22, 0.297003
1655.75, 0.297003
1656.28, 0.296950
1656.81, 0.297056
1657.34, 0.297003
1657.87, 0.296950
1658.4, 0.297161
1658.93, 0.297425
1659.46, 0.297425
1659.99, 0.297531
1660.52, 0.297689
1661.05, 0.297741
1661.59, 0.297952
1662.12, 0.298005
1662.65, 0.297794
1663.19, 0.297794
1663.72, 0.297952
1664.26, 0.298163
1664.79, 0.298322
1665.32, 0.298269
1665.86, 0.298374
1666.39, 0.298427
1666.93, 0.298480
1667.47, 0.298480
1668.0, 0.298691
1668.54, 0.298902
1669.08, 0.298954
1669.61, 0.298954
1670.15, 0.298849
1670.69, 0.298849
1671.23, 0.299060
1671.77, 0.299165
1672.31, 0.299271
1672.85, 0.299324
1673.39, 0.299482
1673.93, 0.299534
1674.47, 0.299429
1675.01, 0.299324
1675.55, 0.299376
1676.09, 0.299798
1676.64, 0.299956
1677.18, 0.299904
1677.72, 0.300115
1678.26, 0.300062
1678.81, 0.299904
1679.35, 0.300009
1679.89, 0.300009
1680.44, 0.300009
1680.98, 0.300009
1681.53, 0.300273
1682.07, 0.300484
1682.62, 0.300642
1683.17, 0.300800
1683.71, 0.300695
1684.26, 0.300695
1684.81, 0.300958
1685.36, 0.301117
1685.9, 0.301169
1686.45, 0.301380
1687.0, 0.301433
1687.55, 0.301433
1688.1, 0.301697
1688.65, 0.301749
1689.2, 0.301591
1689.75, 0.301644
1690.3, 0.301749
1690.85, 0.301644
1691.41, 0.301802
1691.96, 0.302224
1692.51, 0.302329
1693.06, 0.302224
1693.61, 0.302119
1694.17, 0.302277
1694.72, 0.302382
1695.28, 0.302488
1695.83, 0.302382
1696.39, 0.302540
1696.94, 0.302804
1697.5, 0.302804
1698.05, 0.302962
1698.61, 0.303120
1699.17, 0.303173
1699.72, 0.303015
1700.28, 0.303015
1700.84, 0.303015
1701.4, 0.303120
1701.95, 0.303120
1702.51, 0.303226
1703.07, 0.303384
1703.63, 0.303490
1704.19, 0.303701
1704.75, 0.303595
1705.31, 0.303542
1705.88, 0.303753
1706.44, 0.303911
1707.0, 0.303911
1707.56, 0.304017
1708.12, 0.304017
1708.69, 0.304070
1709.25, 0.304122
1709.81, 0.304175
1710.38, 0.304175
1710.94, 0.304228
1711.51, 0.304281
1712.07, 0.304281
1712.64, 0.304281
1713.2, 0.304439
1713.77, 0.304650
1714.34, 0.304702
1714.9, 0.304597
1715.47, 0.304702
1716.04, 0.304755
1716.61, 0.304808
1717.18, 0.305019
1717.74, 0.304913
1718.31, 0.304808
1718.88, 0.304913
1719.45, 0.305124
1720.02, 0.305177
1720.59, 0.305072
1721.17, 0.305283
1721.74, 0.305494
1722.31, 0.305388
1722.88, 0.305335
1723.45, 0.305124
1724.03, 0.305072
1724.6, 0.305283
1725.18, 0.305546
1725.75, 0.305599
1726.33, 0.305757
1726.9, 0.305757
1727.48, 0.305757
1728.05, 0.305915
1728.63, 0.306074
1729.2, 0.305704
1729.78, 0.305704
1730.36, 0.305968
1730.94, 0.305810
1731.51, 0.305968
1732.09, 0.306285
1732.67, 0.306443
1733.25, 0.306074
1733.83, 0.306074
1734.41, 0.306443
1734.99, 0.306548
1735.57, 0.306548
1736.15, 0.306495
1736.73, 0.306495
1737.32, 0.306495
1737.9, 0.306601
1738.48, 0.306812
1739.07, 0.306865
1739.65, 0.306865
1740.23, 0.306812
1740.82, 0.306865
1741.4, 0.306970
1741.99, 0.306970
1742.57, 0.307076
1743.16, 0.307339
1743.74, 0.307287
1744.33, 0.307181
1744.92, 0.307550
1745.51, 0.307708
1746.09, 0.307603
1746.68, 0.307708
1747.27, 0.307656
1747.86, 0.307550
1748.45, 0.307603
1749.04, 0.307708
1749.63, 0.307656
1750.22, 0.307656
1750.81, 0.307814
1751.4, 0.308025
1751.99, 0.308025
1752.59, 0.308130
1753.18, 0.308183
1753.77, 0.308341
1754.37, 0.308341
1754.96, 0.308394
1755.56, 0.308394
1756.15, 0.308394
1756.74, 0.308447
1757.34, 0.308552
1757.94, 0.308447
1758.53, 0.308552
1759.13, 0.308710
1759.73, 0.308763
1760.32, 0.308710
1760.92, 0.308710
1761.52, 0.308816
1762.12, 0.308974
1762.72, 0.309079
1763.32, 0.309185
1763.92, 0.309290
1764.52, 0.309185
1765.12, 0.309290
1765.72, 0.309501
1766.32, 0.309501
1766.92, 0.309501
1767.53, 0.309501
1768.13, 0.309554
1768.73, 0.309501
1769.34, 0.309449
1769.94, 0.309607
1770.55, 0.309712
1771.15, 0.309712
1771.76, 0.309818
1772.36, 0.310029
1772.97, 0.310134
1773.57, 0.310187
1774.18, 0.310240
1774.79, 0.310134
1775.4, 0.309976
1776.0, 0.310134
1776.61, 0.310292
1777.22, 0.310398
1777.83, 0.310345
1778.44, 0.310345
1779.05, 0.310240
1779.66, 0.310240
1780.27, 0.310451
1780.88, 0.310556
1781.5, 0.310503
1782.11, 0.310503
1782.72, 0.310556
1783.33, 0.310609
1783.95, 0.310609
1784.56, 0.310609
1785.18, 0.310662
1785.79, 0.310662
1786.41, 0.310609
1787.02, 0.310767
1787.64, 0.311136
1788.26, 0.310925
1788.87, 0.310820
1789.49, 0.310925
1790.11, 0.310872
1790.73, 0.310767
1791.35, 0.310925
1791.96, 0.311136
1792.58, 0.311083
1793.21, 0.311031
1793.83, 0.311083
1794.45, 0.311189
1795.07, 0.311294
1795.69, 0.311294
1796.31, 0.311242
1796.93, 0.311294
1797.56, 0.311400
1798.18, 0.311242
1798.8, 0.311031
1799.43, 0.311031
1800.05, 0.311189
1800.68, 0.311189
1801.3, 0.311136
1801.93, 0.311242
1802.56, 0.311294
1803.18, 0.311453
1803.81, 0.311453
1804.44, 0.311400
1805.07, 0.311294
1805.7, 0.311136
1806.33, 0.311294
1806.95, 0.311558
1807.58, 0.311664
1808.22, 0.311611
1808.85, 0.311716
1809.48, 0.311874
1810.11, 0.311716
1810.74, 0.311400
1811.38, 0.311347
1812.01, 0.311400
1812.64, 0.311453
1813.28, 0.311716
1813.91, 0.311769
1814.55, 0.311505
1815.18, 0.311400
1815.82, 0.311505
1816.45, 0.311611
1817.09, 0.311611
1817.73, 0.311611
1818.36, 0.311505
1819.0, 0.311505
1819.64, 0.311558
1820.28, 0.311611
1820.92, 0.311716
1821.56, 0.311769
1822.2, 0.311822
1822.84, 0.311874
1823.48, 0.311822
1824.12, 0.312033
1824.76, 0.312296
1825.41, 0.312033
1826.05, 0.311611
1826.69, 0.311822
1827.34, 0.312191
1827.98, 0.312138
1828.63, 0.311980
1829.27, 0.312033
1829.92, 0.312033
1830.56, 0.311874
1831.21, 0.311874
1831.86, 0.312085
1832.5, 0.311980
1833.15, 0.311980
1833.8, 0.312138
1834.45, 0.312033
1835.1, 0.311927
1835.75, 0.311769
1836.4, 0.311716
1837.05, 0.311822
1837.7, 0.311716
1838.35, 0.312138
1839.01, 0.312138
1839.66, 0.311664
1840.31, 0.311769
1840.96, 0.311716
1841.62, 0.311189
1842.27, 0.311453
1842.93, 0.311822
1843.58, 0.312085
1844.24, 0.312191
1844.9, 0.312244
1845.55, 0.312138
1846.21, 0.311400
1846.87, 0.310820
1847.53, 0.310978
1848.18, 0.311136
1848.84, 0.311505
1849.5, 0.311769
1850.16, 0.311664
1850.82, 0.311664
1851.48, 0.311716
1852.14, 0.311400
1852.81, 0.311031
1853.47, 0.310503
1854.13, 0.310609
1854.8, 0.311031
1855.46, 0.310978
1856.12, 0.310345
1856.79, 0.310292
1857.45, 0.310662
1858.12, 0.310609
1858.79, 0.309976
1859.45, 0.309238
1860.12, 0.309396
1860.79, 0.309765
1861.46, 0.309607
1862.12, 0.309290
1862.79, 0.309185
1863.46, 0.308816
1864.13, 0.308236
1864.8, 0.308025
1865.48, 0.307867
1866.15, 0.307550
1866.82, 0.306759
1867.49, 0.305810
1868.16, 0.305704
1868.84, 0.305494
1869.51, 0.304650
1870.19, 0.303753
1870.86, 0.302910
1871.54, 0.302751
1872.21, 0.302013
1872.89, 0.300853
1873.56, 0.300431
1874.24, 0.300220
1874.92, 0.299482
1875.6, 0.298480
1876.28, 0.297214
1876.96, 0.295896
1877.64, 0.295052
1878.32, 0.294103
1879.0, 0.292943
1879.68, 0.291677
1880.36, 0.290306
1881.04, 0.288777
1881.73, 0.287247
1882.41, 0.285718
1883.09, 0.283872
1883.78, 0.281816
1884.46, 0.279864
1885.15, 0.277966
1885.83, 0.275909
1886.52, 0.273747
1887.21, 0.271532
1887.89, 0.268948
1888.58, 0.266364
1889.27, 0.263517
1889.96, 0.260141
1890.65, 0.257241
1891.34, 0.254499
1892.03, 0.251388
1892.72, 0.248065
1893.41, 0.244585
1894.1, 0.241210
1894.79, 0.237835
1895.49, 0.234460
1896.18, 0.231295
1896.87, 0.228131
1897.57, 0.225178
1898.26, 0.222331
1898.96, 0.219430
1899.65, 0.216952
1900.35, 0.215264
1901.05, 0.213787
1901.74, 0.212469
1902.44, 0.211098
1903.14, 0.210254
1903.84, 0.209885
1904.54, 0.209516
1905.24, 0.209252
1905.94, 0.209305
1906.64, 0.209621
1907.34, 0.210254
1908.04, 0.210729
1908.75, 0.211256
1909.45, 0.212153
1910.15, 0.213207
1910.86, 0.214209
1911.56, 0.215317
1912.27, 0.216424
1912.97, 0.217426
1913.68, 0.218745
1914.39, 0.220432
1915.09, 0.222067
1915.8, 0.223385
1916.51, 0.224651
1917.22, 0.226180
1917.93, 0.227762
1918.64, 0.229292
1919.35, 0.230610
1920.06, 0.231665
1920.77, 0.233088
1921.48, 0.234881
1922.19, 0.236411
1922.91, 0.237729
1923.62, 0.238995
1924.33, 0.240577
1925.05, 0.242001
1925.76, 0.243214
1926.48, 0.244321
1927.19, 0.245323
1927.91, 0.246272
