Database of Origin, USGS Spectral Database
Sample Description, See USGS database for additional info
Date Added,2016-08-10 05:03:24.671920

Data ID,USGS_lep09          
Sample ID, lepidolite_nmnh105543.12790
Mineral Name, lepidolite
Material Class,Phyllosilicate

Wavelength
1379.5, 0.314226
1379.87, 0.313251
1380.23, 0.312082
1380.6, 0.310002
1380.97, 0.309223
1381.34, 0.309418
1381.7, 0.308638
1382.07, 0.306299
1382.44, 0.303375
1382.81, 0.301815
1383.18, 0.302010
1383.55, 0.301815
1383.92, 0.300971
1384.29, 0.299801
1384.66, 0.298177
1385.03, 0.297527
1385.4, 0.297527
1385.77, 0.297462
1386.14, 0.297137
1386.51, 0.296747
1386.88, 0.296812
1387.25, 0.296552
1387.62, 0.295383
1387.99, 0.295188
1388.36, 0.296292
1388.74, 0.296682
1389.11, 0.296227
1389.48, 0.295707
1389.85, 0.295578
1390.23, 0.295383
1390.6, 0.295253
1390.97, 0.295578
1391.35, 0.295123
1391.72, 0.294863
1392.09, 0.294538
1392.47, 0.293823
1392.84, 0.294668
1393.21, 0.295707
1393.59, 0.295513
1393.96, 0.295513
1394.34, 0.294993
1394.71, 0.294213
1395.09, 0.294733
1395.46, 0.295253
1395.84, 0.295123
1396.22, 0.294408
1396.59, 0.294083
1396.97, 0.294018
1397.35, 0.293758
1397.72, 0.294213
1398.1, 0.294213
1398.48, 0.293433
1398.85, 0.292978
1399.23, 0.292329
1399.61, 0.291549
1399.99, 0.291484
1400.37, 0.291094
1400.74, 0.290834
1401.12, 0.291224
1401.5, 0.290379
1401.88, 0.289990
1402.26, 0.289990
1402.64, 0.289860
1403.02, 0.289275
1403.4, 0.289015
1403.78, 0.289080
1404.16, 0.288690
1404.54, 0.287780
1404.92, 0.287520
1405.3, 0.287196
1405.68, 0.286871
1406.06, 0.286871
1406.44, 0.287001
1406.83, 0.286351
1407.21, 0.284921
1407.59, 0.284402
1407.97, 0.284337
1408.35, 0.284142
1408.74, 0.283427
1409.12, 0.281933
1409.5, 0.281348
1409.89, 0.281673
1410.27, 0.281608
1410.65, 0.281218
1411.04, 0.280438
1411.42, 0.279593
1411.81, 0.279009
1412.19, 0.278619
1412.58, 0.279139
1412.96, 0.279009
1413.35, 0.278749
1413.73, 0.278359
1414.12, 0.277774
1414.5, 0.277579
1414.89, 0.277644
1415.28, 0.277579
1415.66, 0.277579
1416.05, 0.277579
1416.44, 0.277254
1416.82, 0.277449
1417.21, 0.278034
1417.6, 0.277969
1417.98, 0.277579
1418.37, 0.277449
1418.76, 0.277449
1419.15, 0.277644
1419.54, 0.277579
1419.93, 0.277384
1420.32, 0.277709
1420.71, 0.278034
1421.09, 0.278099
1421.48, 0.277904
1421.88, 0.277579
1422.27, 0.277449
1422.66, 0.277774
1423.05, 0.277904
1423.44, 0.277644
1423.83, 0.277514
1424.22, 0.277839
1424.61, 0.277644
1425.0, 0.277514
1425.39, 0.277059
1425.78, 0.277319
1426.18, 0.277709
1426.57, 0.277709
1426.96, 0.277774
1427.36, 0.278034
1427.75, 0.277839
1428.14, 0.277709
1428.54, 0.277969
1428.93, 0.278164
1429.32, 0.278034
1429.72, 0.278229
1430.11, 0.278424
1430.51, 0.278814
1430.9, 0.278879
1431.3, 0.278684
1431.69, 0.278554
1432.09, 0.279009
1432.48, 0.279074
1432.88, 0.279269
1433.28, 0.279463
1433.67, 0.279333
1434.07, 0.279658
1434.46, 0.280048
1434.86, 0.280373
1435.26, 0.280828
1435.66, 0.280893
1436.05, 0.280893
1436.45, 0.280893
1436.85, 0.281218
1437.25, 0.281348
1437.65, 0.280893
1438.05, 0.280958
1438.44, 0.281413
1438.84, 0.281543
1439.24, 0.281478
1439.64, 0.281413
1440.04, 0.282062
1440.44, 0.282777
1440.84, 0.282712
1441.24, 0.282582
1441.65, 0.282647
1442.05, 0.282842
1442.45, 0.282777
1442.85, 0.282517
1443.25, 0.282582
1443.65, 0.282257
1444.05, 0.282712
1444.46, 0.282972
1444.86, 0.282842
1445.26, 0.282452
1445.67, 0.282452
1446.07, 0.282712
1446.47, 0.282322
1446.88, 0.281997
1447.28, 0.282062
1447.68, 0.282387
1448.09, 0.282452
1448.49, 0.282322
1448.9, 0.282192
1449.3, 0.281997
1449.71, 0.281997
1450.11, 0.281868
1450.52, 0.281997
1450.93, 0.282452
1451.33, 0.282647
1451.74, 0.281803
1452.14, 0.281413
1452.55, 0.281348
1452.96, 0.281088
1453.36, 0.281023
1453.77, 0.281348
1454.18, 0.281608
1454.59, 0.281608
1455.0, 0.281088
1455.41, 0.280958
1455.81, 0.281023
1456.22, 0.280763
1456.63, 0.280308
1457.04, 0.279723
1457.45, 0.279723
1457.86, 0.279983
1458.27, 0.280113
1458.68, 0.280308
1459.09, 0.280308
1459.5, 0.279853
1459.91, 0.279658
1460.32, 0.279853
1460.74, 0.279658
1461.15, 0.279398
1461.56, 0.278749
1461.97, 0.278814
1462.39, 0.279074
1462.8, 0.278749
1463.21, 0.278489
1463.62, 0.278554
1464.04, 0.278619
1464.45, 0.278554
1464.86, 0.278489
1465.28, 0.278489
1465.69, 0.278359
1466.11, 0.278034
1466.52, 0.277969
1466.94, 0.278294
1467.35, 0.278424
1467.77, 0.278554
1468.18, 0.278294
1468.6, 0.278034
1469.02, 0.277514
1469.43, 0.277449
1469.85, 0.278034
1470.27, 0.277969
1470.68, 0.277579
1471.1, 0.277774
1471.52, 0.277579
1471.94, 0.277124
1472.35, 0.276734
1472.77, 0.276604
1473.19, 0.276864
1473.61, 0.277059
1474.03, 0.277124
1474.45, 0.277059
1474.87, 0.276539
1475.29, 0.276539
1475.71, 0.276929
1476.13, 0.276799
1476.55, 0.276734
1476.97, 0.276799
1477.39, 0.276734
1477.81, 0.276604
1478.23, 0.276604
1478.65, 0.276669
1479.07, 0.277254
1479.5, 0.277709
1479.92, 0.277514
1480.34, 0.277189
1480.76, 0.276604
1481.19, 0.276539
1481.61, 0.276929
1482.03, 0.277254
1482.46, 0.277189
1482.88, 0.276604
1483.31, 0.276539
1483.73, 0.276669
1484.16, 0.276345
1484.58, 0.276085
1485.01, 0.276474
1485.43, 0.277124
1485.86, 0.277189
1486.28, 0.277384
1486.71, 0.277384
1487.14, 0.277124
1487.56, 0.276864
1487.99, 0.276734
1488.42, 0.276929
1488.84, 0.276929
1489.27, 0.276410
1489.7, 0.276604
1490.13, 0.277059
1490.56, 0.276929
1490.98, 0.276604
1491.41, 0.276539
1491.84, 0.276734
1492.27, 0.276734
1492.7, 0.276799
1493.13, 0.276799
1493.56, 0.276669
1493.99, 0.276929
1494.42, 0.276994
1494.85, 0.276864
1495.29, 0.276864
1495.72, 0.277189
1496.15, 0.277124
1496.58, 0.277254
1497.01, 0.277579
1497.44, 0.277189
1497.88, 0.277059
1498.31, 0.277254
1498.74, 0.277189
1499.18, 0.276994
1499.61, 0.277124
1500.04, 0.277514
1500.48, 0.277384
1500.91, 0.277254
1501.35, 0.277579
1501.78, 0.277709
1502.22, 0.277319
1502.65, 0.277189
1503.09, 0.277384
1503.53, 0.277774
1503.96, 0.278164
1504.4, 0.278099
1504.83, 0.277774
1505.27, 0.277579
1505.71, 0.277254
1506.15, 0.277254
1506.58, 0.277189
1507.02, 0.277319
1507.46, 0.277709
1507.9, 0.277709
1508.34, 0.277839
1508.78, 0.277969
1509.21, 0.277774
1509.66, 0.277644
1510.09, 0.277579
1510.53, 0.277774
1510.97, 0.278229
1511.42, 0.278359
1511.86, 0.278034
1512.3, 0.277774
1512.74, 0.277774
1513.18, 0.277904
1513.62, 0.277969
1514.06, 0.277839
1514.51, 0.277579
1514.95, 0.277579
1515.39, 0.277774
1515.83, 0.277709
1516.28, 0.277579
1516.72, 0.277709
1517.16, 0.277904
1517.61, 0.278099
1518.05, 0.278424
1518.5, 0.278229
1518.94, 0.278034
1519.39, 0.278359
1519.83, 0.278554
1520.28, 0.278424
1520.73, 0.278229
1521.17, 0.277774
1521.62, 0.277449
1522.07, 0.277839
1522.51, 0.278164
1522.96, 0.278294
1523.41, 0.278099
1523.85, 0.277774
1524.3, 0.277579
1524.75, 0.277969
1525.2, 0.278034
1525.65, 0.278034
1526.1, 0.278164
1526.55, 0.278229
1527.0, 0.277969
1527.45, 0.277644
1527.9, 0.277774
1528.35, 0.278294
1528.8, 0.278294
1529.25, 0.278099
1529.7, 0.278099
1530.15, 0.278164
1530.6, 0.278034
1531.05, 0.278294
1531.51, 0.278034
1531.96, 0.277774
1532.41, 0.278099
1532.87, 0.278294
1533.32, 0.278229
1533.77, 0.278424
1534.23, 0.278034
1534.68, 0.277969
1535.14, 0.277904
1535.59, 0.278164
1536.05, 0.278554
1536.5, 0.278424
1536.96, 0.278359
1537.41, 0.278424
1537.87, 0.277904
1538.32, 0.277904
1538.78, 0.278424
1539.24, 0.278684
1539.7, 0.278749
1540.15, 0.279074
1540.61, 0.279139
1541.07, 0.279074
1541.53, 0.279009
1541.98, 0.278814
1542.44, 0.279009
1542.9, 0.279463
1543.36, 0.279009
1543.82, 0.278749
1544.28, 0.279139
1544.74, 0.279204
1545.2, 0.279074
1545.66, 0.279009
1546.12, 0.279398
1546.59, 0.279528
1547.05, 0.279204
1547.51, 0.279139
1547.97, 0.279204
1548.43, 0.279398
1548.9, 0.279593
1549.36, 0.279723
1549.82, 0.279853
1550.29, 0.280048
1550.75, 0.279853
1551.21, 0.279983
1551.68, 0.280243
1552.14, 0.280438
1552.61, 0.280243
1553.07, 0.279918
1553.54, 0.279918
1554.0, 0.280048
1554.47, 0.280503
1554.93, 0.280828
1555.4, 0.280633
1555.87, 0.280568
1556.34, 0.280893
1556.8, 0.281088
1557.27, 0.280958
1557.74, 0.280893
1558.21, 0.280568
1558.68, 0.280763
1559.14, 0.281283
1559.61, 0.281283
1560.08, 0.281283
1560.55, 0.281738
1561.02, 0.281868
1561.49, 0.281868
1561.96, 0.281868
1562.43, 0.281868
1562.9, 0.281738
1563.38, 0.281738
1563.85, 0.281803
1564.32, 0.281997
1564.79, 0.281868
1565.26, 0.281997
1565.74, 0.282257
1566.21, 0.282257
1566.68, 0.282062
1567.16, 0.282257
1567.63, 0.282452
1568.1, 0.282257
1568.58, 0.282192
1569.05, 0.282192
1569.53, 0.282257
1570.0, 0.281933
1570.48, 0.281933
1570.96, 0.282062
1571.43, 0.282322
1571.91, 0.282517
1572.39, 0.282647
1572.86, 0.282842
1573.34, 0.282712
1573.82, 0.282712
1574.3, 0.282712
1574.77, 0.282452
1575.25, 0.282712
1575.73, 0.282842
1576.21, 0.283037
1576.69, 0.283232
1577.17, 0.282972
1577.65, 0.282842
1578.13, 0.283037
1578.61, 0.282972
1579.09, 0.282842
1579.57, 0.282972
1580.05, 0.282972
1580.54, 0.282907
1581.02, 0.283167
1581.5, 0.283102
1581.98, 0.282777
1582.47, 0.282777
1582.95, 0.282972
1583.43, 0.282907
1583.92, 0.282972
1584.4, 0.283232
1584.88, 0.283232
1585.37, 0.283102
1585.85, 0.282842
1586.34, 0.282907
1586.82, 0.283102
1587.31, 0.283427
1587.8, 0.283622
1588.28, 0.283232
1588.77, 0.283427
1589.26, 0.283752
1589.74, 0.283622
1590.23, 0.283622
1590.72, 0.283427
1591.21, 0.283297
1591.7, 0.283427
1592.19, 0.283427
1592.67, 0.283297
1593.16, 0.283557
1593.65, 0.283882
1594.14, 0.284012
1594.63, 0.284012
1595.12, 0.284012
1595.61, 0.283882
1596.11, 0.283687
1596.6, 0.283557
1597.09, 0.283947
1597.58, 0.284207
1598.08, 0.283947
1598.57, 0.283817
1599.06, 0.284077
1599.55, 0.283947
1600.05, 0.283882
1600.54, 0.284207
1601.04, 0.284467
1601.53, 0.284467
1602.03, 0.284726
1602.52, 0.284597
1603.02, 0.284207
1603.51, 0.284142
1604.01, 0.284402
1604.5, 0.284597
1605.0, 0.284597
1605.5, 0.284402
1606.0, 0.284532
1606.49, 0.284726
1606.99, 0.285051
1607.49, 0.284986
1607.99, 0.284921
1608.49, 0.284986
1608.99, 0.284921
1609.49, 0.285051
1609.99, 0.285441
1610.49, 0.285506
1610.99, 0.285116
1611.49, 0.284986
1611.99, 0.285051
1612.49, 0.285246
1612.99, 0.285506
1613.49, 0.285766
1614.0, 0.285766
1614.5, 0.285571
1615.0, 0.285441
1615.51, 0.285831
1616.01, 0.286091
1616.51, 0.285831
1617.02, 0.285701
1617.52, 0.285961
1618.03, 0.286221
1618.53, 0.286221
1619.04, 0.286091
1619.54, 0.286286
1620.05, 0.286741
1620.55, 0.286741
1621.06, 0.286546
1621.57, 0.286481
1622.08, 0.286481
1622.58, 0.286546
1623.09, 0.286611
1623.6, 0.286481
1624.11, 0.286546
1624.62, 0.287131
1625.13, 0.287715
1625.64, 0.287391
1626.15, 0.287196
1626.66, 0.287261
1627.17, 0.287261
1627.68, 0.287391
1628.19, 0.287391
1628.7, 0.287261
1629.21, 0.287326
1629.72, 0.287326
1630.24, 0.287520
1630.75, 0.287650
1631.26, 0.287650
1631.78, 0.287910
1632.29, 0.288040
1632.8, 0.287845
1633.32, 0.287715
1633.83, 0.287910
1634.35, 0.287845
1634.86, 0.287585
1635.38, 0.287910
1635.9, 0.288170
1636.41, 0.287845
1636.93, 0.287780
1637.45, 0.287975
1637.96, 0.288040
1638.48, 0.287975
1639.0, 0.287910
1639.52, 0.287845
1640.04, 0.288105
1640.56, 0.288170
1641.08, 0.287975
1641.59, 0.288105
1642.11, 0.288235
1642.63, 0.288365
1643.16, 0.288300
1643.68, 0.288430
1644.2, 0.288560
1644.72, 0.288430
1645.24, 0.288300
1645.76, 0.288560
1646.29, 0.288690
1646.81, 0.288625
1647.33, 0.288235
1647.86, 0.288300
1648.38, 0.288300
1648.9, 0.288235
1649.43, 0.288105
1649.95, 0.288105
1650.48, 0.288040
1651.0, 0.288040
1651.53, 0.287975
1652.06, 0.287975
1652.58, 0.288105
1653.11, 0.288105
1653.64, 0.288105
1654.17, 0.288040
1654.69, 0.287845
1655.22, 0.287975
1655.75, 0.288170
1656.28, 0.288235
1656.81, 0.288300
1657.34, 0.288235
1657.87, 0.288300
1658.4, 0.288755
1658.93, 0.288690
1659.46, 0.288690
1659.99, 0.288300
1660.52, 0.288105
1661.05, 0.288170
1661.59, 0.288300
1662.12, 0.288300
1662.65, 0.288365
1663.19, 0.288560
1663.72, 0.288950
1664.26, 0.288950
1664.79, 0.288690
1665.32, 0.288625
1665.86, 0.288560
1666.39, 0.288495
1666.93, 0.288690
1667.47, 0.288690
1668.0, 0.288755
1668.54, 0.288820
1669.08, 0.288560
1669.61, 0.288560
1670.15, 0.289210
1670.69, 0.289535
1671.23, 0.289275
1671.77, 0.289015
1672.31, 0.289080
1672.85, 0.289015
1673.39, 0.289080
1673.93, 0.289145
1674.47, 0.289275
1675.01, 0.289210
1675.55, 0.289015
1676.09, 0.289210
1676.64, 0.289535
1677.18, 0.289405
1677.72, 0.289340
1678.26, 0.289340
1678.81, 0.289535
1679.35, 0.289795
1679.89, 0.290055
1680.44, 0.289730
1680.98, 0.289535
1681.53, 0.289665
1682.07, 0.289860
1682.62, 0.289600
1683.17, 0.289535
1683.71, 0.289860
1684.26, 0.289990
1684.81, 0.289990
1685.36, 0.289990
1685.9, 0.289665
1686.45, 0.289795
1687.0, 0.289860
1687.55, 0.289925
1688.1, 0.290314
1688.65, 0.290444
1689.2, 0.290314
1689.75, 0.290379
1690.3, 0.290314
1690.85, 0.290509
1691.41, 0.290899
1691.96, 0.291029
1692.51, 0.290834
1693.06, 0.290834
1693.61, 0.290769
1694.17, 0.290769
1694.72, 0.290769
1695.28, 0.290899
1695.83, 0.290964
1696.39, 0.291159
1696.94, 0.291224
1697.5, 0.291354
1698.05, 0.291419
1698.61, 0.291224
1699.17, 0.291289
1699.72, 0.291289
1700.28, 0.291419
1700.84, 0.291679
1701.4, 0.291484
1701.95, 0.291159
1702.51, 0.291419
1703.07, 0.291874
1703.63, 0.291744
1704.19, 0.291614
1704.75, 0.291679
1705.31, 0.292069
1705.88, 0.291744
1706.44, 0.291289
1707.0, 0.291419
1707.56, 0.291354
1708.12, 0.291029
1708.69, 0.291094
1709.25, 0.291484
1709.81, 0.291549
1710.38, 0.291289
1710.94, 0.291354
1711.51, 0.291679
1712.07, 0.291874
1712.64, 0.291614
1713.2, 0.291484
1713.77, 0.291419
1714.34, 0.291549
1714.9, 0.291419
1715.47, 0.291484
1716.04, 0.291419
1716.61, 0.291289
1717.18, 0.291289
1717.74, 0.291289
1718.31, 0.291484
1718.88, 0.291744
1719.45, 0.291484
1720.02, 0.291224
1720.59, 0.291224
1721.17, 0.291289
1721.74, 0.291224
1722.31, 0.291354
1722.88, 0.291289
1723.45, 0.291159
1724.03, 0.291224
1724.6, 0.291159
1725.18, 0.291159
1725.75, 0.291354
1726.33, 0.291159
1726.9, 0.290834
1727.48, 0.290964
1728.05, 0.291159
1728.63, 0.291419
1729.2, 0.291484
1729.78, 0.290964
1730.36, 0.290964
1730.94, 0.291224
1731.51, 0.291159
1732.09, 0.291159
1732.67, 0.291224
1733.25, 0.291029
1733.83, 0.290834
1734.41, 0.290769
1734.99, 0.290834
1735.57, 0.291029
1736.15, 0.291159
1736.73, 0.291159
1737.32, 0.291094
1737.9, 0.290964
1738.48, 0.290964
1739.07, 0.290899
1739.65, 0.290964
1740.23, 0.290899
1740.82, 0.291159
1741.4, 0.291224
1741.99, 0.291159
1742.57, 0.291289
1743.16, 0.291289
1743.74, 0.291224
1744.33, 0.291159
1744.92, 0.291354
1745.51, 0.291484
1746.09, 0.291354
1746.68, 0.291354
1747.27, 0.291094
1747.86, 0.290899
1748.45, 0.291094
1749.04, 0.291289
1749.63, 0.291419
1750.22, 0.291614
1750.81, 0.291159
1751.4, 0.291094
1751.99, 0.291029
1752.59, 0.291159
1753.18, 0.291484
1753.77, 0.291679
1754.37, 0.291484
1754.96, 0.291419
1755.56, 0.291354
1756.15, 0.291289
1756.74, 0.291224
1757.34, 0.291354
1757.94, 0.291744
1758.53, 0.291809
1759.13, 0.291289
1759.73, 0.291159
1760.32, 0.291224
1760.92, 0.291289
1761.52, 0.291484
1762.12, 0.291419
1762.72, 0.291289
1763.32, 0.291549
1763.92, 0.291874
1764.52, 0.291809
1765.12, 0.291939
1765.72, 0.291939
1766.32, 0.291939
1766.92, 0.291874
1767.53, 0.291744
1768.13, 0.291679
1768.73, 0.291744
1769.34, 0.291809
1769.94, 0.291744
1770.55, 0.291744
1771.15, 0.291614
1771.76, 0.291809
1772.36, 0.291679
1772.97, 0.291679
1773.57, 0.291809
1774.18, 0.291874
1774.79, 0.292004
1775.4, 0.291939
1776.0, 0.291679
1776.61, 0.291744
1777.22, 0.291874
1777.83, 0.291939
1778.44, 0.291809
1779.05, 0.291679
1779.66, 0.291679
1780.27, 0.291354
1780.88, 0.291159
1781.5, 0.291484
1782.11, 0.291809
1782.72, 0.291874
1783.33, 0.291939
1783.95, 0.291939
1784.56, 0.291614
1785.18, 0.291354
1785.79, 0.291159
1786.41, 0.291224
1787.02, 0.291289
1787.64, 0.291419
1788.26, 0.291224
1788.87, 0.291289
1789.49, 0.291419
1790.11, 0.291419
1790.73, 0.291159
1791.35, 0.290964
1791.96, 0.290964
1792.58, 0.291224
1793.21, 0.291354
1793.83, 0.291224
1794.45, 0.290769
1795.07, 0.290639
1795.69, 0.290834
1796.31, 0.291029
1796.93, 0.291029
1797.56, 0.290639
1798.18, 0.290509
1798.8, 0.290639
1799.43, 0.290704
1800.05, 0.290509
1800.68, 0.290314
1801.3, 0.290249
1801.93, 0.290185
1802.56, 0.290314
1803.18, 0.290055
1803.81, 0.289990
1804.44, 0.290120
1805.07, 0.290120
1805.7, 0.289925
1806.33, 0.289795
1806.95, 0.289860
1807.58, 0.290444
1808.22, 0.290639
1808.85, 0.290314
1809.48, 0.289925
1810.11, 0.289665
1810.74, 0.289340
1811.38, 0.289340
1812.01, 0.289535
1812.64, 0.289535
1813.28, 0.289535
1813.91, 0.289600
1814.55, 0.289535
1815.18, 0.289210
1815.82, 0.289210
1816.45, 0.289405
1817.09, 0.289340
1817.73, 0.289405
1818.36, 0.289535
1819.0, 0.289470
1819.64, 0.288950
1820.28, 0.288235
1820.92, 0.288365
1821.56, 0.289080
1822.2, 0.289275
1822.84, 0.289015
1823.48, 0.289015
1824.12, 0.289470
1824.76, 0.289535
1825.41, 0.288950
1826.05, 0.288235
1826.69, 0.288430
1827.34, 0.289275
1827.98, 0.289210
1828.63, 0.288820
1829.27, 0.288690
1829.92, 0.288820
1830.56, 0.288495
1831.21, 0.288365
1831.86, 0.288820
1832.5, 0.288950
1833.15, 0.289015
1833.8, 0.289340
1834.45, 0.289080
1835.1, 0.288560
1835.75, 0.288105
1836.4, 0.287845
1837.05, 0.287975
1837.7, 0.287650
1838.35, 0.288105
1839.01, 0.288625
1839.66, 0.287975
1840.31, 0.287975
1840.96, 0.288365
1841.62, 0.287650
1842.27, 0.287455
1842.93, 0.288235
1843.58, 0.288560
1844.24, 0.288625
1844.9, 0.288690
1845.55, 0.288755
1846.21, 0.288235
1846.87, 0.287196
1847.53, 0.287001
1848.18, 0.287196
1848.84, 0.287715
1849.5, 0.288430
1850.16, 0.288560
1850.82, 0.288365
1851.48, 0.288495
1852.14, 0.288430
1852.81, 0.287975
1853.47, 0.287261
1854.13, 0.287066
1854.8, 0.287780
1855.46, 0.288105
1856.12, 0.287715
1856.79, 0.287326
1857.45, 0.287780
1858.12, 0.288170
1858.79, 0.287780
1859.45, 0.286741
1860.12, 0.286416
1860.79, 0.287066
1861.46, 0.287585
1862.12, 0.287845
1862.79, 0.287715
1863.46, 0.287455
1864.13, 0.287261
1864.8, 0.287326
1865.48, 0.287455
1866.15, 0.287520
1866.82, 0.287261
1867.49, 0.286091
1868.16, 0.285896
1868.84, 0.286546
1869.51, 0.286546
1870.19, 0.285831
1870.86, 0.284791
1871.54, 0.285636
1872.21, 0.286091
1872.89, 0.284986
1873.56, 0.284921
1874.24, 0.285766
1874.92, 0.286091
1875.6, 0.285896
1876.28, 0.285441
1876.96, 0.284921
1877.64, 0.285116
1878.32, 0.285376
1879.0, 0.285441
1879.68, 0.285311
1880.36, 0.285116
1881.04, 0.284986
1881.73, 0.285051
1882.41, 0.285051
1883.09, 0.284856
1883.78, 0.284207
1884.46, 0.283947
1885.15, 0.283752
1885.83, 0.283362
1886.52, 0.283167
1887.21, 0.282972
1887.89, 0.282972
1888.58, 0.282907
1889.27, 0.282127
1889.96, 0.281218
1890.65, 0.281218
1891.34, 0.281218
1892.03, 0.280308
1892.72, 0.279853
1893.41, 0.279788
1894.1, 0.279398
1894.79, 0.278944
1895.49, 0.278424
1896.18, 0.277839
1896.87, 0.277124
1897.57, 0.276474
1898.26, 0.276020
1898.96, 0.275045
1899.65, 0.273745
1900.35, 0.273551
1901.05, 0.273616
1901.74, 0.273356
1902.44, 0.272706
1903.14, 0.272186
1903.84, 0.272186
1904.54, 0.271796
1905.24, 0.270692
1905.94, 0.270562
1906.64, 0.270627
1907.34, 0.270757
1908.04, 0.270951
1908.75, 0.271081
