Database of Origin,USGS Spectral Database
Sample Description,See USGS database for additional info
Date Added,2017-02-22 02:49:17.973437

Data ID,USGS_sta02          
Sample ID,staurolite_hs188.21181
Mineral Name,staurolite

Wavelength
1501.78, 0.0877600
1502.22, 0.0875800
1502.65, 0.0871750
1503.09, 0.0872200
1503.53, 0.0875350
1503.96, 0.0873100
1504.4, 0.0868150
1504.83, 0.0870400
1505.27, 0.0868600
1505.71, 0.0867250
1506.15, 0.0865900
1506.58, 0.0858690
1507.02, 0.0860040
1507.46, 0.0869500
1507.9, 0.0870400
1508.34, 0.0863200
1508.78, 0.0860040
1509.21, 0.0861390
1509.66, 0.0861390
1510.09, 0.0853290
1510.53, 0.0855090
1510.97, 0.0857790
1511.42, 0.0856890
1511.86, 0.0859590
1512.3, 0.0859140
1512.74, 0.0855540
1513.18, 0.0857340
1513.62, 0.0858240
1514.06, 0.0855090
1514.51, 0.0854640
1514.95, 0.0852840
1515.39, 0.0847440
1515.83, 0.0839780
1516.28, 0.0840230
1516.72, 0.0846080
1517.16, 0.0846530
1517.61, 0.0845180
1518.05, 0.0842480
1518.5, 0.0833930
1518.94, 0.0832580
1519.39, 0.0839330
1519.83, 0.0842480
1520.28, 0.0837080
1520.73, 0.0837980
1521.17, 0.0840680
1521.62, 0.0839330
1522.07, 0.0834380
1522.51, 0.0834830
1522.96, 0.0841130
1523.41, 0.0843830
1523.85, 0.0837980
1524.3, 0.0832580
1524.75, 0.0828520
1525.2, 0.0825370
1525.65, 0.0824470
1526.1, 0.0829870
1526.55, 0.0829870
1527.0, 0.0826720
1527.45, 0.0825370
1527.9, 0.0823570
1528.35, 0.0823570
1528.8, 0.0824020
1529.25, 0.0823120
1529.7, 0.0823570
1530.15, 0.0826720
1530.6, 0.0823120
1531.05, 0.0820420
1531.51, 0.0819520
1531.96, 0.0816370
1532.41, 0.0812760
1532.87, 0.0811410
1533.32, 0.0813210
1533.77, 0.0817720
1534.23, 0.0815010
1534.68, 0.0810060
1535.14, 0.0808710
1535.59, 0.0804660
1536.05, 0.0809610
1536.5, 0.0810960
1536.96, 0.0809160
1537.41, 0.0810060
1537.87, 0.0804660
1538.32, 0.0802410
1538.78, 0.0802860
1539.24, 0.0805560
1539.7, 0.0805560
1540.15, 0.0800160
1540.61, 0.0796100
1541.07, 0.0800610
1541.53, 0.0806460
1541.98, 0.0804210
1542.44, 0.0796100
1542.9, 0.0795200
1543.36, 0.0795650
1543.82, 0.0792500
1544.28, 0.0793400
1544.74, 0.0790250
1545.2, 0.0786200
1545.66, 0.0784400
1546.12, 0.0785750
1546.59, 0.0788900
1547.05, 0.0792050
1547.51, 0.0791600
1547.97, 0.0792950
1548.43, 0.0791150
1548.9, 0.0787100
1549.36, 0.0786650
1549.82, 0.0782140
1550.29, 0.0781690
1550.75, 0.0783490
1551.21, 0.0781240
1551.68, 0.0779440
1552.14, 0.0778990
1552.61, 0.0778090
1553.07, 0.0775390
1553.54, 0.0772240
1554.0, 0.0773590
1554.47, 0.0774940
1554.93, 0.0777190
1555.4, 0.0780790
1555.87, 0.0779440
1556.34, 0.0776290
1556.8, 0.0773140
1557.27, 0.0769990
1557.74, 0.0767280
1558.21, 0.0771340
1558.68, 0.0776740
1559.14, 0.0774940
1559.61, 0.0768640
1560.08, 0.0764130
1560.55, 0.0763230
1561.02, 0.0764130
1561.49, 0.0765480
1561.96, 0.0762780
1562.43, 0.0764580
1562.9, 0.0764130
1563.38, 0.0760980
1563.85, 0.0763680
1564.32, 0.0765930
1564.79, 0.0759630
1565.26, 0.0755580
1565.74, 0.0757380
1566.21, 0.0762330
1566.68, 0.0761880
1567.16, 0.0761430
1567.63, 0.0759630
1568.1, 0.0754680
1568.58, 0.0756030
1569.05, 0.0757380
1569.53, 0.0755130
1570.0, 0.0756480
1570.48, 0.0754230
1570.96, 0.0751520
1571.43, 0.0750620
1571.91, 0.0751970
1572.39, 0.0751070
1572.86, 0.0746570
1573.34, 0.0749720
1573.82, 0.0752880
1574.3, 0.0749720
1574.77, 0.0744770
1575.25, 0.0743870
1575.73, 0.0745670
1576.21, 0.0744320
1576.69, 0.0744770
1577.17, 0.0745220
1577.65, 0.0744770
1578.13, 0.0742970
1578.61, 0.0740720
1579.09, 0.0741620
1579.57, 0.0740270
1580.05, 0.0739370
1580.54, 0.0742070
1581.02, 0.0740720
1581.5, 0.0737120
1581.98, 0.0733960
1582.47, 0.0730810
1582.95, 0.0728560
1583.43, 0.0729460
1583.92, 0.0730810
1584.4, 0.0730360
1584.88, 0.0729910
1585.37, 0.0731710
1585.85, 0.0731260
1586.34, 0.0729910
1586.82, 0.0730810
1587.31, 0.0730810
1587.8, 0.0729010
1588.28, 0.0730810
1588.77, 0.0732610
1589.26, 0.0732610
1589.74, 0.0729910
1590.23, 0.0729910
1590.72, 0.0733960
1591.21, 0.0731710
1591.7, 0.0726310
1592.19, 0.0726760
1592.67, 0.0727210
1593.16, 0.0723610
1593.65, 0.0724960
1594.14, 0.0727210
1594.63, 0.0726760
1595.12, 0.0724960
1595.61, 0.0723160
1596.11, 0.0721810
1596.6, 0.0718200
1597.09, 0.0716400
1597.58, 0.0715950
1598.08, 0.0715500
1598.57, 0.0718650
1599.06, 0.0720450
1599.55, 0.0718200
1600.05, 0.0719100
1600.54, 0.0718650
1601.04, 0.0717300
1601.53, 0.0715050
1602.03, 0.0713700
1602.52, 0.0711450
1603.02, 0.0710550
1603.51, 0.0712350
1604.01, 0.0713700
1604.5, 0.0713250
1605.0, 0.0715950
1605.5, 0.0716400
1606.0, 0.0713250
1606.49, 0.0712800
1606.99, 0.0711900
1607.49, 0.0709650
1607.99, 0.0711000
1608.49, 0.0709650
1608.99, 0.0709200
1609.49, 0.0708750
1609.99, 0.0708300
1610.49, 0.0708750
1610.99, 0.0707400
1611.49, 0.0706050
1611.99, 0.0704690
1612.49, 0.0706050
1612.99, 0.0705600
1613.49, 0.0703790
1614.0, 0.0704240
1614.5, 0.0706950
1615.0, 0.0707400
1615.51, 0.0708750
1616.01, 0.0711450
1616.51, 0.0708750
1617.02, 0.0705150
1617.52, 0.0706050
1618.03, 0.0702440
1618.53, 0.0702890
1619.04, 0.0704690
1619.54, 0.0704690
1620.05, 0.0702440
1620.55, 0.0697490
1621.06, 0.0697490
1621.57, 0.0700190
1622.08, 0.0698390
1622.58, 0.0698390
1623.09, 0.0701090
1623.6, 0.0700190
1624.11, 0.0698840
1624.62, 0.0700640
1625.13, 0.0701990
1625.64, 0.0700640
1626.15, 0.0696140
1626.66, 0.0692540
1627.17, 0.0694340
1627.68, 0.0695240
1628.19, 0.0695240
1628.7, 0.0692990
1629.21, 0.0692540
1629.72, 0.0694340
1630.24, 0.0698390
1630.75, 0.0699290
1631.26, 0.0696140
1631.78, 0.0694790
1632.29, 0.0694340
1632.8, 0.0695240
1633.32, 0.0695240
1633.83, 0.0690740
1634.35, 0.0688030
1634.86, 0.0688030
1635.38, 0.0691640
1635.9, 0.0692090
1636.41, 0.0686680
1636.93, 0.0685330
1637.45, 0.0689390
1637.96, 0.0692090
1638.48, 0.0692540
1639.0, 0.0688030
1639.52, 0.0688030
1640.04, 0.0690740
1640.56, 0.0691190
1641.08, 0.0689390
1641.59, 0.0687580
1642.11, 0.0684880
1642.63, 0.0684880
1643.16, 0.0685780
1643.68, 0.0686680
1644.2, 0.0689390
1644.72, 0.0687580
1645.24, 0.0683980
1645.76, 0.0684430
1646.29, 0.0684430
1646.81, 0.0682180
1647.33, 0.0681730
1647.86, 0.0683530
1648.38, 0.0683080
1648.9, 0.0680380
1649.43, 0.0680830
1649.95, 0.0680380
1650.48, 0.0680830
1651.0, 0.0680830
1651.53, 0.0679930
1652.06, 0.0681280
1652.58, 0.0683980
1653.11, 0.0683530
1653.64, 0.0680830
1654.17, 0.0681730
1654.69, 0.0681730
1655.22, 0.0682630
1655.75, 0.0680830
1656.28, 0.0679030
1656.81, 0.0682180
1657.34, 0.0680830
1657.87, 0.0674980
1658.4, 0.0671370
1658.93, 0.0673630
1659.46, 0.0678580
1659.99, 0.0679480
1660.52, 0.0680380
1661.05, 0.0682630
1661.59, 0.0683080
1662.12, 0.0681280
1662.65, 0.0677680
1663.19, 0.0679480
1663.72, 0.0679930
1664.26, 0.0679030
1664.79, 0.0680830
1665.32, 0.0679480
1665.86, 0.0676330
1666.39, 0.0676780
1666.93, 0.0681280
1667.47, 0.0683530
1668.0, 0.0681280
1668.54, 0.0675880
1669.08, 0.0673630
1669.61, 0.0669570
1670.15, 0.0670020
1670.69, 0.0671370
1671.23, 0.0672720
1671.77, 0.0677230
1672.31, 0.0677680
1672.85, 0.0677230
1673.39, 0.0676780
1673.93, 0.0673630
1674.47, 0.0670920
1675.01, 0.0670470
1675.55, 0.0673180
1676.09, 0.0671820
1676.64, 0.0672270
1677.18, 0.0673180
1677.72, 0.0672270
1678.26, 0.0671820
1678.81, 0.0671820
1679.35, 0.0672720
1679.89, 0.0673180
1680.44, 0.0673180
1680.98, 0.0674980
1681.53, 0.0672720
1682.07, 0.0672270
1682.62, 0.0675430
1683.17, 0.0672720
1683.71, 0.0672270
1684.26, 0.0671370
1684.81, 0.0670470
1685.36, 0.0670470
1685.9, 0.0671820
1686.45, 0.0672720
1687.0, 0.0671820
1687.55, 0.0669570
1688.1, 0.0670020
1688.65, 0.0670470
1689.2, 0.0670470
1689.75, 0.0672720
1690.3, 0.0671820
1690.85, 0.0668670
1691.41, 0.0666420
1691.96, 0.0668670
1692.51, 0.0668670
1693.06, 0.0667320
1693.61, 0.0669120
1694.17, 0.0670920
1694.72, 0.0670020
1695.28, 0.0665520
1695.83, 0.0665970
1696.39, 0.0666420
1696.94, 0.0668670
1697.5, 0.0670470
1698.05, 0.0667320
1698.61, 0.0663270
1699.17, 0.0665520
1699.72, 0.0667770
1700.28, 0.0664620
1700.84, 0.0665070
1701.4, 0.0665520
1701.95, 0.0664170
1702.51, 0.0667320
1703.07, 0.0669120
1703.63, 0.0665520
1704.19, 0.0663270
1704.75, 0.0661020
1705.31, 0.0662370
1705.88, 0.0663720
1706.44, 0.0661470
1707.0, 0.0662370
1707.56, 0.0664170
1708.12, 0.0664170
1708.69, 0.0665070
1709.25, 0.0664170
1709.81, 0.0662370
1710.38, 0.0663270
1710.94, 0.0663720
1711.51, 0.0662820
1712.07, 0.0664170
1712.64, 0.0661920
1713.2, 0.0660570
1713.77, 0.0660120
1714.34, 0.0661920
1714.9, 0.0661470
1715.47, 0.0659670
1716.04, 0.0661020
1716.61, 0.0661470
1717.18, 0.0659220
1717.74, 0.0661020
1718.31, 0.0663270
1718.88, 0.0662370
1719.45, 0.0661020
1720.02, 0.0661920
1720.59, 0.0661020
1721.17, 0.0657870
1721.74, 0.0657870
1722.31, 0.0659670
1722.88, 0.0660120
1723.45, 0.0658320
1724.03, 0.0656960
1724.6, 0.0656960
1725.18, 0.0658320
1725.75, 0.0658320
1726.33, 0.0658320
1726.9, 0.0659670
1727.48, 0.0656960
1728.05, 0.0656060
1728.63, 0.0656960
1729.2, 0.0654260
1729.78, 0.0654260
1730.36, 0.0657420
1730.94, 0.0656960
1731.51, 0.0656060
1732.09, 0.0658770
1732.67, 0.0660120
1733.25, 0.0658770
1733.83, 0.0656510
1734.41, 0.0655160
1734.99, 0.0654710
1735.57, 0.0654260
1736.15, 0.0652460
1736.73, 0.0652910
1737.32, 0.0655610
1737.9, 0.0657870
1738.48, 0.0658770
1739.07, 0.0657420
1739.65, 0.0652910
1740.23, 0.0654710
1740.82, 0.0656510
1741.4, 0.0654710
1741.99, 0.0656060
1742.57, 0.0656960
1743.16, 0.0654710
1743.74, 0.0653360
1744.33, 0.0653360
1744.92, 0.0654710
1745.51, 0.0654710
1746.09, 0.0652460
1746.68, 0.0654260
1747.27, 0.0654710
1747.86, 0.0652460
1748.45, 0.0649760
1749.04, 0.0650210
1749.63, 0.0651110
1750.22, 0.0652010
1750.81, 0.0651560
1751.4, 0.0650210
1751.99, 0.0648860
1752.59, 0.0647960
1753.18, 0.0648860
1753.77, 0.0651110
1754.37, 0.0655160
1754.96, 0.0655610
1755.56, 0.0653360
1756.15, 0.0652460
1756.74, 0.0651560
1757.34, 0.0649310
1757.94, 0.0652010
1758.53, 0.0653810
1759.13, 0.0652010
1759.73, 0.0652460
1760.32, 0.0654260
1760.92, 0.0652460
1761.52, 0.0650660
1762.12, 0.0649310
1762.72, 0.0648860
1763.32, 0.0650660
1763.92, 0.0652010
1764.52, 0.0652460
1765.12, 0.0652010
1765.72, 0.0649760
1766.32, 0.0648860
1766.92, 0.0649760
1767.53, 0.0648410
1768.13, 0.0650210
1768.73, 0.0652010
1769.34, 0.0651110
1769.94, 0.0649310
1770.55, 0.0647960
1771.15, 0.0651560
1771.76, 0.0651560
1772.36, 0.0650660
1772.97, 0.0652010
1773.57, 0.0651110
1774.18, 0.0649310
1774.79, 0.0650660
1775.4, 0.0651560
1776.0, 0.0650210
1776.61, 0.0649760
1777.22, 0.0649760
1777.83, 0.0648860
1778.44, 0.0647510
1779.05, 0.0649760
1779.66, 0.0651560
1780.27, 0.0650660
1780.88, 0.0649760
1781.5, 0.0651110
1782.11, 0.0651110
1782.72, 0.0648410
1783.33, 0.0647510
1783.95, 0.0649310
1784.56, 0.0649310
1785.18, 0.0647510
1785.79, 0.0649310
1786.41, 0.0650210
1787.02, 0.0649310
1787.64, 0.0647060
1788.26, 0.0647060
1788.87, 0.0647960
1789.49, 0.0644810
1790.11, 0.0644810
1790.73, 0.0647960
1791.35, 0.0649310
1791.96, 0.0647510
1792.58, 0.0646610
1793.21, 0.0648410
1793.83, 0.0648410
1794.45, 0.0645260
1795.07, 0.0645260
1795.69, 0.0646160
1796.31, 0.0645260
1796.93, 0.0643910
1797.56, 0.0646160
1798.18, 0.0647960
1798.8, 0.0647960
1799.43, 0.0646160
1800.05, 0.0645710
1800.68, 0.0646610
1801.3, 0.0647960
1801.93, 0.0650210
1802.56, 0.0650210
1803.18, 0.0650210
1803.81, 0.0648410
1804.44, 0.0644810
1805.07, 0.0645710
1805.7, 0.0649310
1806.33, 0.0649310
1806.95, 0.0647060
1807.58, 0.0645260
1808.22, 0.0645710
1808.85, 0.0646160
1809.48, 0.0645710
1810.11, 0.0643460
1810.74, 0.0646160
1811.38, 0.0648410
1812.01, 0.0647510
1812.64, 0.0647060
1813.28, 0.0646160
1813.91, 0.0645710
1814.55, 0.0646610
1815.18, 0.0646610
1815.82, 0.0645260
1816.45, 0.0645260
1817.09, 0.0643910
1817.73, 0.0643460
1818.36, 0.0644360
1819.0, 0.0645260
1819.64, 0.0644360
1820.28, 0.0644810
1820.92, 0.0647060
1821.56, 0.0647060
1822.2, 0.0647960
1822.84, 0.0647960
1823.48, 0.0647060
1824.12, 0.0648410
1824.76, 0.0648410
1825.41, 0.0646610
1826.05, 0.0644810
1826.69, 0.0647510
1827.34, 0.0647960
1827.98, 0.0647060
1828.63, 0.0647510
1829.27, 0.0645710
1829.92, 0.0646610
1830.56, 0.0647960
1831.21, 0.0646160
1831.86, 0.0645260
1832.5, 0.0645260
1833.15, 0.0646610
1833.8, 0.0647510
1834.45, 0.0647510
1835.1, 0.0647060
1835.75, 0.0646610
1836.4, 0.0648860
1837.05, 0.0649760
1837.7, 0.0647510
1838.35, 0.0646610
1839.01, 0.0645710
1839.66, 0.0647060
1840.31, 0.0647510
1840.96, 0.0648410
1841.62, 0.0648410
1842.27, 0.0648860
1842.93, 0.0648410
1843.58, 0.0646160
1844.24, 0.0646610
1844.9, 0.0647960
1845.55, 0.0645710
1846.21, 0.0644360
1846.87, 0.0645710
1847.53, 0.0648860
1848.18, 0.0649760
1848.84, 0.0648410
1849.5, 0.0647510
1850.16, 0.0646160
1850.82, 0.0645710
1851.48, 0.0645710
1852.14, 0.0646610
1852.81, 0.0648410
1853.47, 0.0649310
1854.13, 0.0648410
1854.8, 0.0647510
1855.46, 0.0645260
1856.12, 0.0642560
1856.79, 0.0642110
1857.45, 0.0643460
1858.12, 0.0645710
1858.79, 0.0647060
1859.45, 0.0647960
1860.12, 0.0648410
1860.79, 0.0646610
1861.46, 0.0643460
1862.12, 0.0641200
1862.79, 0.0643010
1863.46, 0.0643910
1864.13, 0.0643910
1864.8, 0.0644360
1865.48, 0.0645260
1866.15, 0.0643010
1866.82, 0.0641200
1867.49, 0.0643460
1868.16, 0.0646610
1868.84, 0.0645260
1869.51, 0.0643010
1870.19, 0.0643460
1870.86, 0.0644810
1871.54, 0.0643460
1872.21, 0.0642560
1872.89, 0.0641660
1873.56, 0.0643460
1874.24, 0.0645260
1874.92, 0.0643910
1875.6, 0.0643460
1876.28, 0.0645260
1876.96, 0.0645260
1877.64, 0.0643010
1878.32, 0.0643460
1879.0, 0.0643910
1879.68, 0.0641200
1880.36, 0.0639850
1881.04, 0.0639850
1881.73, 0.0640300
1882.41, 0.0640750
1883.09, 0.0639400
1883.78, 0.0640750
1884.46, 0.0644360
1885.15, 0.0644360
1885.83, 0.0641200
1886.52, 0.0640300
1887.21, 0.0641200
1887.89, 0.0638950
1888.58, 0.0640750
1889.27, 0.0643010
1889.96, 0.0643460
1890.65, 0.0642560
1891.34, 0.0643910
1892.03, 0.0643460
1892.72, 0.0640750
1893.41, 0.0638950
1894.1, 0.0640300
1894.79, 0.0640300
1895.49, 0.0640300
1896.18, 0.0639850
1896.87, 0.0638950
1897.57, 0.0639850
1898.26, 0.0641200
1898.96, 0.0641660
1899.65, 0.0642110
1900.35, 0.0641660
1901.05, 0.0639850
1901.74, 0.0640300
1902.44, 0.0641660
1903.14, 0.0641660
1903.84, 0.0641200
1904.54, 0.0641200
1905.24, 0.0641200
1905.94, 0.0640750
1906.64, 0.0640750
1907.34, 0.0639850
1908.04, 0.0638950
1908.75, 0.0639850
1909.45, 0.0639850
1910.15, 0.0639850
1910.86, 0.0638500
1911.56, 0.0638950
1912.27, 0.0641200
1912.97, 0.0641660
1913.68, 0.0642110
1914.39, 0.0641660
1915.09, 0.0641660
1915.8, 0.0641660
1916.51, 0.0642110
1917.22, 0.0640750
1917.93, 0.0640750
1918.64, 0.0640300
1919.35, 0.0642110
1920.06, 0.0643460
1920.77, 0.0642560
1921.48, 0.0642110
1922.19, 0.0642560
1922.91, 0.0643460
1923.62, 0.0643460
1924.33, 0.0643010
1925.05, 0.0642560
1925.76, 0.0642110
1926.48, 0.0643910
1927.19, 0.0645710
1927.91, 0.0646160
1928.63, 0.0643910
1929.35, 0.0643010
1930.07, 0.0642110
1930.78, 0.0641200
1931.5, 0.0643010
1932.22, 0.0643910
1932.94, 0.0643460
1933.66, 0.0643010
1934.39, 0.0644810
1935.11, 0.0646160
1935.83, 0.0644360
1936.55, 0.0643460
1937.28, 0.0643010
1938.0, 0.0641660
1938.73, 0.0642110
1939.45, 0.0645260
1940.18, 0.0644810
1940.9, 0.0643460
1941.63, 0.0642560
1942.36, 0.0642110
1943.09, 0.0641200
1943.81, 0.0641660
1944.54, 0.0643910
1945.27, 0.0644360
1946.0, 0.0643460
1946.73, 0.0644360
1947.47, 0.0643910
1948.2, 0.0642560
1948.93, 0.0642110
1949.66, 0.0643910
1950.4, 0.0643910
1951.13, 0.0643460
1951.86, 0.0642560
1952.6, 0.0642560
1953.34, 0.0645260
1954.07, 0.0645260
1954.81, 0.0644360
1955.55, 0.0646160
1956.29, 0.0647060
1957.02, 0.0647960
1957.76, 0.0646160
1958.5, 0.0643460
1959.24, 0.0644360
1959.98, 0.0647060
1960.72, 0.0644810
1961.47, 0.0643460
1962.21, 0.0644810
1962.95, 0.0643010
1963.7, 0.0641200
1964.44, 0.0642560
1965.18, 0.0644360
1965.93, 0.0644360
1966.67, 0.0643010
1967.42, 0.0641660
1968.17, 0.0642560
1968.92, 0.0643010
1969.66, 0.0642560
1970.41, 0.0645260
1971.16, 0.0644360
1971.91, 0.0643010
1972.66, 0.0643010
1973.41, 0.0643010
1974.16, 0.0643460
1974.92, 0.0644360
1975.67, 0.0644810
1976.42, 0.0643010
1977.18, 0.0642110
1977.93, 0.0643910
1978.69, 0.0644360
1979.44, 0.0643910
1980.2, 0.0643460
1980.95, 0.0643010
1981.71, 0.0643910
1982.47, 0.0643460
1983.23, 0.0642110
1983.99, 0.0642560
1984.74, 0.0645260
1985.51, 0.0646160
1986.27, 0.0644360
1987.03, 0.0641660
1987.79, 0.0642110
1988.55, 0.0644360
1989.32, 0.0643460
1990.08, 0.0643910
1990.84, 0.0644360
1991.61, 0.0644360
1992.37, 0.0643010
1993.14, 0.0641660
1993.9, 0.0643010
1994.67, 0.0643460
1995.44, 0.0642110
1996.21, 0.0643010
1996.98, 0.0644810
1997.75, 0.0645710
1998.52, 0.0645260
1999.29, 0.0645260
2000.06, 0.0647060
2000.83, 0.0646610
2001.6, 0.0644810
2002.38, 0.0644360
2003.15, 0.0645710
2003.93, 0.0647060
2004.7, 0.0646610
2005.48, 0.0645260
2006.25, 0.0645260
2007.03, 0.0647060
2007.81, 0.0648860
2008.58, 0.0648410
2009.36, 0.0647060
2010.14, 0.0645710
2010.92, 0.0645260
2011.7, 0.0646610
2012.48, 0.0647960
2013.26, 0.0647960
2014.05, 0.0645710
2014.83, 0.0646610
2015.61, 0.0647510
2016.4, 0.0646610
2017.18, 0.0647060
2017.97, 0.0647060
2018.75, 0.0647060
2019.54, 0.0647960
2020.32, 0.0649760
2021.11, 0.0649310
2021.9, 0.0648410
2022.69, 0.0648410
2023.48, 0.0647960
2024.27, 0.0647510
2025.06, 0.0648410
2025.85, 0.0648860
2026.64, 0.0649760
2027.44, 0.0651560
2028.23, 0.0651560
2029.02, 0.0650210
2029.82, 0.0649760
2030.61, 0.0649760
2031.41, 0.0650660
2032.2, 0.0651560
2033.0, 0.0651560
2033.8, 0.0651110
2034.6, 0.0651110
2035.4, 0.0650210
2036.2, 0.0651110
2037.0, 0.0652010
2037.8, 0.0652010
2038.6, 0.0650660
2039.4, 0.0647960
2040.2, 0.0647510
2041.01, 0.0649310
2041.81, 0.0649310
2042.61, 0.0650210
2043.42, 0.0652010
2044.22, 0.0653360
2045.03, 0.0652910
2045.84, 0.0651110
2046.65, 0.0650210
2047.46, 0.0649310
2048.26, 0.0649310
2049.07, 0.0649310
2049.88, 0.0649310
2050.69, 0.0649760
2051.51, 0.0651110
2052.32, 0.0651560
2053.13, 0.0650660
2053.94, 0.0651110
2054.76, 0.0651110
2055.57, 0.0649310
2056.39, 0.0648860
2057.2, 0.0650210
2058.02, 0.0650660
2058.84, 0.0649760
2059.66, 0.0649760
2060.48, 0.0647510
2061.29, 0.0648410
2062.11, 0.0650210
2062.94, 0.0648860
2063.76, 0.0647960
2064.58, 0.0650660
2065.4, 0.0652010
2066.22, 0.0650660
2067.05, 0.0650210
2067.87, 0.0650210
2068.7, 0.0651560
2069.52, 0.0652010
2070.35, 0.0650660
2071.18, 0.0649310
2072.0, 0.0649310
2072.83, 0.0648410
2073.66, 0.0648410
2074.49, 0.0650210
2075.32, 0.0648410
2076.15, 0.0648410
2076.98, 0.0650660
2077.82, 0.0651110
2078.65, 0.0648860
2079.48, 0.0648860
2080.32, 0.0650210
2081.15, 0.0650660
2081.99, 0.0650660
2082.83, 0.0651110
2083.66, 0.0650660
2084.5, 0.0649760
2085.34, 0.0651560
2086.18, 0.0652010
2087.02, 0.0649760
2087.86, 0.0647960
2088.7, 0.0647960
2089.54, 0.0649760
2090.39, 0.0651560
2091.23, 0.0651110
2092.07, 0.0650660
2092.92, 0.0649760
2093.76, 0.0649310
2094.61, 0.0648860
2095.45, 0.0650210
2096.3, 0.0650660
2097.15, 0.0649760
2098.0, 0.0650210
2098.85, 0.0648860
2099.7, 0.0649760
2100.55, 0.0650660
2101.4, 0.0650660
2102.25, 0.0651560
2103.1, 0.0652010
2103.96, 0.0652460
2104.81, 0.0651110
2105.67, 0.0648860
2106.52, 0.0649310
2107.38, 0.0650210
