Database of Origin, USGS Spectral Database
Sample Description, See USGS database for additional info
Date Added,2016-08-10 05:06:47.672854

Data ID,USGS_mas02          
Sample ID, agnite_gds65.13468
Mineral Name, mascagnite
Material Class,Sulfate

Wavelength
1459.09, 0.237291
1459.5, 0.236795
1459.91, 0.236052
1460.32, 0.235804
1460.74, 0.235474
1461.15, 0.234813
1461.56, 0.234399
1461.97, 0.234234
1462.39, 0.233656
1462.8, 0.232830
1463.21, 0.232086
1463.62, 0.231508
1464.04, 0.230764
1464.45, 0.230103
1464.86, 0.229938
1465.28, 0.229525
1465.69, 0.228781
1466.11, 0.228285
1466.52, 0.227542
1466.94, 0.226716
1467.35, 0.226220
1467.77, 0.225972
1468.18, 0.225063
1468.6, 0.223906
1469.02, 0.223659
1469.43, 0.223989
1469.85, 0.223411
1470.27, 0.222584
1470.68, 0.221510
1471.1, 0.220519
1471.52, 0.220106
1471.94, 0.219527
1472.35, 0.218866
1472.77, 0.218205
1473.19, 0.217545
1473.61, 0.216718
1474.03, 0.216140
1474.45, 0.215644
1474.87, 0.214983
1475.29, 0.214157
1475.71, 0.213579
1476.13, 0.213166
1476.55, 0.212174
1476.97, 0.211348
1477.39, 0.210852
1477.81, 0.210439
1478.23, 0.210109
1478.65, 0.209282
1479.07, 0.208456
1479.5, 0.207630
1479.92, 0.206969
1480.34, 0.206638
1480.76, 0.206225
1481.19, 0.205399
1481.61, 0.204573
1482.03, 0.203664
1482.46, 0.203086
1482.88, 0.202342
1483.31, 0.201433
1483.73, 0.201103
1484.16, 0.200607
1484.58, 0.199698
1485.01, 0.198955
1485.43, 0.198128
1485.86, 0.197385
1486.28, 0.196724
1486.71, 0.195980
1487.14, 0.195071
1487.56, 0.194245
1487.99, 0.193584
1488.42, 0.192923
1488.84, 0.192179
1489.27, 0.191271
1489.7, 0.190444
1490.13, 0.190031
1490.56, 0.189536
1490.98, 0.188461
1491.41, 0.187470
1491.84, 0.186726
1492.27, 0.186065
1492.7, 0.185239
1493.13, 0.184496
1493.56, 0.183835
1493.99, 0.183008
1494.42, 0.181852
1494.85, 0.180943
1495.29, 0.180364
1495.72, 0.179869
1496.15, 0.178960
1496.58, 0.177968
1497.01, 0.177225
1497.44, 0.176481
1497.88, 0.175325
1498.31, 0.174498
1498.74, 0.173755
1499.18, 0.172763
1499.61, 0.171607
1500.04, 0.170863
1500.48, 0.170367
1500.91, 0.169541
1501.35, 0.168880
1501.78, 0.168302
1502.22, 0.167145
1502.65, 0.165823
1503.09, 0.164831
1503.53, 0.164088
1503.96, 0.163179
1504.4, 0.162270
1504.83, 0.161279
1505.27, 0.160452
1505.71, 0.159626
1506.15, 0.158635
1506.58, 0.157643
1507.02, 0.156487
1507.46, 0.155495
1507.9, 0.154669
1508.34, 0.153843
1508.78, 0.152851
1509.21, 0.151860
1509.66, 0.151281
1510.09, 0.150373
1510.53, 0.149299
1510.97, 0.148142
1511.42, 0.146985
1511.86, 0.146076
1512.3, 0.145002
1512.74, 0.144011
1513.18, 0.142854
1513.62, 0.141615
1514.06, 0.140706
1514.51, 0.139714
1514.95, 0.138888
1515.39, 0.138062
1515.83, 0.136657
1516.28, 0.135583
1516.72, 0.134509
1517.16, 0.133600
1517.61, 0.132691
1518.05, 0.131287
1518.5, 0.130213
1518.94, 0.129387
1519.39, 0.128643
1519.83, 0.127569
1520.28, 0.126247
1520.73, 0.125421
1521.17, 0.124512
1521.62, 0.123107
1522.07, 0.121537
1522.51, 0.120298
1522.96, 0.119554
1523.41, 0.118811
1523.85, 0.117819
1524.3, 0.116745
1524.75, 0.115836
1525.2, 0.114597
1525.65, 0.113193
1526.1, 0.112366
1526.55, 0.111540
1527.0, 0.110383
1527.45, 0.109227
1527.9, 0.108153
1528.35, 0.107079
1528.8, 0.106087
1529.25, 0.105261
1529.7, 0.104187
1530.15, 0.102782
1530.6, 0.101873
1531.05, 0.101047
1531.51, 0.0999730
1531.96, 0.0988160
1532.41, 0.0978250
1532.87, 0.0969160
1533.32, 0.0961720
1533.77, 0.0952640
1534.23, 0.0939420
1534.68, 0.0931150
1535.14, 0.0922890
1535.59, 0.0912150
1536.05, 0.0900580
1536.5, 0.0891490
1536.96, 0.0884060
1537.41, 0.0874970
1537.87, 0.0868360
1538.32, 0.0858450
1538.78, 0.0847700
1539.24, 0.0841100
1539.7, 0.0835310
1540.15, 0.0826220
1540.61, 0.0816310
1541.07, 0.0809700
1541.53, 0.0802260
1541.98, 0.0794000
1542.44, 0.0785740
1542.9, 0.0775820
1543.36, 0.0769210
1543.82, 0.0762600
1544.28, 0.0755990
1544.74, 0.0748560
1545.2, 0.0739470
1545.66, 0.0731210
1546.12, 0.0722120
1546.59, 0.0716340
1547.05, 0.0714680
1547.51, 0.0708900
1547.97, 0.0702290
1548.43, 0.0697330
1548.9, 0.0691550
1549.36, 0.0682460
1549.82, 0.0672550
1550.29, 0.0664280
1550.75, 0.0660150
1551.21, 0.0656020
1551.68, 0.0649410
1552.14, 0.0644450
1552.61, 0.0641150
1553.07, 0.0635370
1553.54, 0.0628760
1554.0, 0.0623800
1554.47, 0.0618840
1554.93, 0.0613060
1555.4, 0.0608100
1555.87, 0.0603140
1556.34, 0.0596530
1556.8, 0.0594050
1557.27, 0.0590750
1557.74, 0.0585790
1558.21, 0.0579180
1558.68, 0.0577530
1559.14, 0.0575880
1559.61, 0.0571750
1560.08, 0.0565960
1560.55, 0.0563480
1561.02, 0.0561830
1561.49, 0.0556870
1561.96, 0.0554400
1562.43, 0.0551920
1562.9, 0.0550260
1563.38, 0.0548610
1563.85, 0.0546960
1564.32, 0.0545310
1564.79, 0.0542000
1565.26, 0.0537870
1565.74, 0.0536220
1566.21, 0.0533740
1566.68, 0.0532910
1567.16, 0.0535390
1567.63, 0.0534570
1568.1, 0.0531260
1568.58, 0.0527130
1569.05, 0.0526300
1569.53, 0.0527960
1570.0, 0.0532090
1570.48, 0.0532090
1570.96, 0.0528780
1571.43, 0.0527130
1571.91, 0.0528780
1572.39, 0.0533740
1572.86, 0.0537040
1573.34, 0.0537040
1573.82, 0.0538700
1574.3, 0.0540350
1574.77, 0.0539520
1575.25, 0.0540350
1575.73, 0.0542830
1576.21, 0.0541180
1576.69, 0.0542830
1577.17, 0.0544480
1577.65, 0.0546130
1578.13, 0.0549440
1578.61, 0.0553570
1579.09, 0.0555220
1579.57, 0.0558530
1580.05, 0.0564310
1580.54, 0.0568440
1581.02, 0.0570090
1581.5, 0.0570920
1581.98, 0.0574230
1582.47, 0.0579180
1582.95, 0.0584140
1583.43, 0.0589920
1583.92, 0.0591580
1584.4, 0.0593230
1584.88, 0.0598190
1585.37, 0.0603970
1585.85, 0.0608100
1586.34, 0.0609750
1586.82, 0.0612230
1587.31, 0.0618010
1587.8, 0.0624620
1588.28, 0.0627100
1588.77, 0.0626280
1589.26, 0.0630410
1589.74, 0.0637020
1590.23, 0.0643630
1590.72, 0.0649410
1591.21, 0.0652720
1591.7, 0.0654370
1592.19, 0.0660150
1592.67, 0.0665940
1593.16, 0.0670890
1593.65, 0.0676680
1594.14, 0.0681630
1594.63, 0.0684110
1595.12, 0.0688240
1595.61, 0.0695680
1596.11, 0.0700640
1596.6, 0.0705590
1597.09, 0.0713030
1597.58, 0.0716340
1598.08, 0.0718810
1598.57, 0.0723770
1599.06, 0.0731210
1599.55, 0.0736990
1600.05, 0.0743600
1600.54, 0.0749380
1601.04, 0.0751860
1601.53, 0.0755170
1602.03, 0.0758470
1602.52, 0.0763430
1603.02, 0.0770040
1603.51, 0.0775820
1604.01, 0.0782430
1604.5, 0.0788220
1605.0, 0.0793170
1605.5, 0.0798130
1606.0, 0.0802260
1606.49, 0.0808050
1606.99, 0.0815480
1607.49, 0.0818790
1607.99, 0.0821270
1608.49, 0.0825400
1608.99, 0.0831180
1609.49, 0.0833660
1609.99, 0.0836960
1610.49, 0.0842750
1610.99, 0.0848530
1611.49, 0.0855140
1611.99, 0.0859270
1612.49, 0.0863400
1612.99, 0.0867530
1613.49, 0.0873320
1614.0, 0.0876620
1614.5, 0.0880750
1615.0, 0.0885710
1615.51, 0.0889020
1616.01, 0.0892320
1616.51, 0.0898930
1617.02, 0.0902240
1617.52, 0.0906370
1618.03, 0.0912150
1618.53, 0.0914630
1619.04, 0.0916280
1619.54, 0.0917930
1620.05, 0.0921240
1620.55, 0.0928670
1621.06, 0.0935280
1621.57, 0.0940240
1622.08, 0.0941890
1622.58, 0.0943550
1623.09, 0.0944370
1623.6, 0.0947680
1624.11, 0.0954290
1624.62, 0.0958420
1625.13, 0.0960900
1625.64, 0.0962550
1626.15, 0.0961720
1626.66, 0.0965030
1627.17, 0.0971640
1627.68, 0.0975770
1628.19, 0.0977420
1628.7, 0.0981550
1629.21, 0.0983210
1629.72, 0.0983210
1630.24, 0.0986510
1630.75, 0.0990640
1631.26, 0.0991470
1631.78, 0.0993950
1632.29, 0.0993950
1632.8, 0.0995600
1633.32, 0.0998900
1633.83, 0.0999730
1634.35, 0.100221
1634.86, 0.100634
1635.38, 0.100799
1635.9, 0.101047
1636.41, 0.101212
1636.93, 0.101378
1637.45, 0.101543
1637.96, 0.101791
1638.48, 0.102039
1639.0, 0.102369
1639.52, 0.102369
1640.04, 0.102534
1640.56, 0.102782
1641.08, 0.103195
1641.59, 0.103361
1642.11, 0.103526
1642.63, 0.103691
1643.16, 0.104104
1643.68, 0.104435
1644.2, 0.104600
1644.72, 0.104930
1645.24, 0.105096
1645.76, 0.105096
1646.29, 0.105674
1646.81, 0.106170
1647.33, 0.106583
1647.86, 0.106913
1648.38, 0.107409
1648.9, 0.107657
1649.43, 0.107905
1649.95, 0.108400
1650.48, 0.108566
1651.0, 0.108731
1651.53, 0.109227
1652.06, 0.109640
1652.58, 0.109970
1653.11, 0.110301
1653.64, 0.110631
1654.17, 0.110962
1654.69, 0.111375
1655.22, 0.111623
1655.75, 0.112036
1656.28, 0.112532
1656.81, 0.113027
1657.34, 0.113358
1657.87, 0.113688
1658.4, 0.114019
1658.93, 0.114515
1659.46, 0.115010
1659.99, 0.115506
1660.52, 0.115919
1661.05, 0.116580
1661.59, 0.117241
1662.12, 0.117737
1662.65, 0.117985
1663.19, 0.118398
1663.72, 0.118976
1664.26, 0.119554
1664.79, 0.119968
1665.32, 0.120381
1665.86, 0.120959
1666.39, 0.121372
1666.93, 0.121703
1667.47, 0.122281
1668.0, 0.122859
1668.54, 0.123355
1669.08, 0.123851
1669.61, 0.124594
1670.15, 0.125008
1670.69, 0.125421
1671.23, 0.125999
1671.77, 0.126329
1672.31, 0.126660
1672.85, 0.126990
1673.39, 0.127486
1673.93, 0.128147
1674.47, 0.128643
1675.01, 0.129056
1675.55, 0.129717
1676.09, 0.130213
1676.64, 0.130956
1677.18, 0.131204
1677.72, 0.131452
1678.26, 0.132113
1678.81, 0.132361
1679.35, 0.132609
1679.89, 0.133105
1680.44, 0.133435
1680.98, 0.134013
1681.53, 0.134592
1682.07, 0.135087
1682.62, 0.135583
1683.17, 0.135996
1683.71, 0.136492
1684.26, 0.136823
1684.81, 0.137236
1685.36, 0.137814
1685.9, 0.138310
1686.45, 0.138640
1687.0, 0.138723
1687.55, 0.139136
1688.1, 0.139466
1688.65, 0.139714
1689.2, 0.140210
1689.75, 0.140788
1690.3, 0.141367
1690.85, 0.141862
1691.41, 0.142193
1691.96, 0.142441
1692.51, 0.142937
1693.06, 0.143432
1693.61, 0.143763
1694.17, 0.144259
1694.72, 0.144672
1695.28, 0.145002
1695.83, 0.145333
1696.39, 0.145663
1696.94, 0.146076
1697.5, 0.146489
1698.05, 0.146737
1698.61, 0.147316
1699.17, 0.147977
1699.72, 0.148307
1700.28, 0.148472
1700.84, 0.148720
1701.4, 0.149133
1701.95, 0.149464
1702.51, 0.149877
1703.07, 0.150290
1703.63, 0.150703
1704.19, 0.151034
1704.75, 0.151199
1705.31, 0.151447
1705.88, 0.152025
1706.44, 0.152521
1707.0, 0.152521
1707.56, 0.152521
1708.12, 0.153099
1708.69, 0.153595
1709.25, 0.153760
1709.81, 0.154008
1710.38, 0.154421
1710.94, 0.154669
1711.51, 0.154999
1712.07, 0.155413
1712.64, 0.155743
1713.2, 0.156156
1713.77, 0.156487
1714.34, 0.156734
1714.9, 0.156900
1715.47, 0.157230
1716.04, 0.157561
1716.61, 0.157891
1717.18, 0.158222
1717.74, 0.158470
1718.31, 0.158635
1718.88, 0.158965
1719.45, 0.159378
1720.02, 0.159461
1720.59, 0.159709
1721.17, 0.159792
1721.74, 0.160122
1722.31, 0.160618
1722.88, 0.161031
1723.45, 0.161361
1724.03, 0.161527
1724.6, 0.161774
1725.18, 0.162105
1725.75, 0.162435
1726.33, 0.162518
1726.9, 0.162683
1727.48, 0.163096
1728.05, 0.163344
1728.63, 0.163510
1729.2, 0.163510
1729.78, 0.163592
1730.36, 0.164171
1730.94, 0.164336
1731.51, 0.164418
1732.09, 0.164336
1732.67, 0.164666
1733.25, 0.165245
1733.83, 0.165327
1734.41, 0.165410
1734.99, 0.165658
1735.57, 0.165906
1736.15, 0.166071
1736.73, 0.166236
1737.32, 0.166484
1737.9, 0.166484
1738.48, 0.166567
1739.07, 0.166980
1739.65, 0.167145
1740.23, 0.167228
1740.82, 0.167310
1741.4, 0.167393
1741.99, 0.167475
1742.57, 0.167641
1743.16, 0.167971
1743.74, 0.168054
1744.33, 0.168136
1744.92, 0.168467
1745.51, 0.168632
1746.09, 0.168632
1746.68, 0.168715
1747.27, 0.168797
1747.86, 0.168963
1748.45, 0.169045
1749.04, 0.169210
1749.63, 0.169293
1750.22, 0.169458
1750.81, 0.169458
1751.4, 0.169458
1751.99, 0.169541
1752.59, 0.169541
1753.18, 0.169624
1753.77, 0.169706
1754.37, 0.169706
1754.96, 0.169871
1755.56, 0.170037
1756.15, 0.170037
1756.74, 0.170202
1757.34, 0.170119
1757.94, 0.169954
1758.53, 0.170037
1759.13, 0.170285
1759.73, 0.170285
1760.32, 0.170367
1760.92, 0.170285
1761.52, 0.170202
1762.12, 0.170202
1762.72, 0.170202
1763.32, 0.170285
1763.92, 0.170532
1764.52, 0.170450
1765.12, 0.170202
1765.72, 0.170285
1766.32, 0.170615
1766.92, 0.170780
1767.53, 0.170780
1768.13, 0.170780
1768.73, 0.170615
1769.34, 0.170532
1769.94, 0.170615
1770.55, 0.170698
1771.15, 0.170532
1771.76, 0.170450
1772.36, 0.170450
1772.97, 0.170367
1773.57, 0.170367
1774.18, 0.170450
1774.79, 0.170450
1775.4, 0.170615
1776.0, 0.170367
1776.61, 0.170202
1777.22, 0.170367
1777.83, 0.170119
1778.44, 0.169954
1779.05, 0.170037
1779.66, 0.170037
1780.27, 0.169871
1780.88, 0.169789
1781.5, 0.169706
1782.11, 0.169789
1782.72, 0.169789
1783.33, 0.169789
1783.95, 0.169624
1784.56, 0.169458
1785.18, 0.169376
1785.79, 0.169293
1786.41, 0.169128
1787.02, 0.168963
1787.64, 0.169128
1788.26, 0.169128
1788.87, 0.168715
1789.49, 0.168384
1790.11, 0.168384
1790.73, 0.168549
1791.35, 0.168384
1791.96, 0.168384
1792.58, 0.168302
1793.21, 0.168302
1793.83, 0.168384
1794.45, 0.168219
1795.07, 0.168136
1795.69, 0.168054
1796.31, 0.167806
1796.93, 0.167475
1797.56, 0.167145
1798.18, 0.167145
1798.8, 0.167228
1799.43, 0.167062
1800.05, 0.167062
1800.68, 0.166897
1801.3, 0.166732
1801.93, 0.166649
1802.56, 0.166567
1803.18, 0.166319
1803.81, 0.166153
1804.44, 0.165988
1805.07, 0.165906
1805.7, 0.165906
1806.33, 0.165740
1806.95, 0.165575
1807.58, 0.165410
1808.22, 0.165327
1808.85, 0.165079
1809.48, 0.164749
1810.11, 0.164666
1810.74, 0.164584
1811.38, 0.164336
1812.01, 0.164088
1812.64, 0.163840
1813.28, 0.163675
1813.91, 0.163675
1814.55, 0.163592
1815.18, 0.163510
1815.82, 0.163262
1816.45, 0.163096
1817.09, 0.162931
1817.73, 0.162683
1818.36, 0.162435
1819.0, 0.162270
1819.64, 0.162188
1820.28, 0.162105
1820.92, 0.161940
1821.56, 0.161692
1822.2, 0.161609
1822.84, 0.161196
1823.48, 0.160948
1824.12, 0.160783
1824.76, 0.160452
1825.41, 0.160370
1826.05, 0.160535
1826.69, 0.160370
1827.34, 0.159709
1827.98, 0.159544
1828.63, 0.159213
1829.27, 0.158883
1829.92, 0.158800
1830.56, 0.158717
1831.21, 0.158552
1831.86, 0.158139
1832.5, 0.157809
1833.15, 0.157809
1833.8, 0.157478
1834.45, 0.157148
1835.1, 0.156900
1835.75, 0.156734
1836.4, 0.156652
1837.05, 0.156321
1837.7, 0.155991
1838.35, 0.155578
1839.01, 0.155165
1839.66, 0.154917
1840.31, 0.154586
1840.96, 0.154421
1841.62, 0.154421
1842.27, 0.154173
1842.93, 0.153677
1843.58, 0.153182
1844.24, 0.152851
1844.9, 0.152686
1845.55, 0.152356
1846.21, 0.152273
1846.87, 0.152190
1847.53, 0.151612
1848.18, 0.151199
1848.84, 0.150786
1849.5, 0.150455
1850.16, 0.150125
1850.82, 0.149629
1851.48, 0.149216
1852.14, 0.148968
1852.81, 0.148555
1853.47, 0.148307
1854.13, 0.147977
1854.8, 0.147316
1855.46, 0.146902
1856.12, 0.146737
1856.79, 0.146076
1857.45, 0.145498
1858.12, 0.145167
1858.79, 0.144920
1859.45, 0.144754
1860.12, 0.144259
1860.79, 0.143680
1861.46, 0.143267
1862.12, 0.142854
1862.79, 0.142523
1863.46, 0.142193
1864.13, 0.141532
1864.8, 0.140954
1865.48, 0.140458
1866.15, 0.139880
1866.82, 0.139632
1867.49, 0.139301
1868.16, 0.138640
1868.84, 0.138227
1869.51, 0.137814
1870.19, 0.137484
1870.86, 0.137236
1871.54, 0.136409
1872.21, 0.135831
1872.89, 0.135666
1873.56, 0.135005
1874.24, 0.134261
1874.92, 0.133683
1875.6, 0.133187
1876.28, 0.132609
1876.96, 0.132196
1877.64, 0.131700
1878.32, 0.131204
1879.0, 0.130461
1879.68, 0.129882
1880.36, 0.129387
1881.04, 0.128973
1881.73, 0.128395
1882.41, 0.127734
1883.09, 0.127156
1883.78, 0.126577
1884.46, 0.125834
1885.15, 0.125090
1885.83, 0.124842
1886.52, 0.124512
1887.21, 0.123768
1887.89, 0.123025
1888.58, 0.122446
1889.27, 0.121785
1889.96, 0.121455
1890.65, 0.120959
1891.34, 0.120215
1892.03, 0.119472
1892.72, 0.118728
1893.41, 0.118233
1894.1, 0.117572
1894.79, 0.116993
1895.49, 0.116415
1896.18, 0.115919
1896.87, 0.115175
1897.57, 0.114432
1898.26, 0.113936
1898.96, 0.113358
1899.65, 0.112697
1900.35, 0.112036
1901.05, 0.111375
1901.74, 0.110797
1902.44, 0.110301
1903.14, 0.109722
1903.84, 0.108731
1904.54, 0.108235
1905.24, 0.107822
1905.94, 0.107161
1906.64, 0.106500
1907.34, 0.105674
1908.04, 0.104848
1908.75, 0.104352
1909.45, 0.103691
1910.15, 0.102947
1910.86, 0.102369
1911.56, 0.101791
1912.27, 0.101047
1912.97, 0.100634
1913.68, 0.100138
1914.39, 0.0993950
1915.09, 0.0985680
1915.8, 0.0979070
1916.51, 0.0974120
1917.22, 0.0966680
1917.93, 0.0958420
1918.64, 0.0950980
1919.35, 0.0945200
1920.06, 0.0940240
1920.77, 0.0932810
1921.48, 0.0924540
1922.19, 0.0917110
1922.91, 0.0910500
1923.62, 0.0905540
1924.33, 0.0899760
1925.05, 0.0890670
1925.76, 0.0884060
1926.48, 0.0879100
1927.19, 0.0872490
1927.91, 0.0865060
1928.63, 0.0858450
1929.35, 0.0851010
1930.07, 0.0842750
1930.78, 0.0836140
1931.5, 0.0829530
1932.22, 0.0822920
1932.94, 0.0816310
1933.66, 0.0808050
1934.39, 0.0800610
1935.11, 0.0794000
1935.83, 0.0787390
1936.55, 0.0779950
1937.28, 0.0773340
1938.0, 0.0768390
1938.73, 0.0760950
1939.45, 0.0752690
1940.18, 0.0746910
1940.9, 0.0739470
1941.63, 0.0731210
1942.36, 0.0722120
1943.09, 0.0712200
1943.81, 0.0703940
1944.54, 0.0695680
1945.27, 0.0689070
1946.0, 0.0682460
1946.73, 0.0675020
1947.47, 0.0665940
1948.2, 0.0658500
1948.93, 0.0651890
1949.66, 0.0645280
1950.4, 0.0638670
1951.13, 0.0631230
1951.86, 0.0624620
1952.6, 0.0616360
1953.34, 0.0607270
1954.07, 0.0599010
1954.81, 0.0591580
1955.55, 0.0583310
1956.29, 0.0575050
1957.02, 0.0569270
1957.76, 0.0561830
1958.5, 0.0553570
1959.24, 0.0546960
1959.98, 0.0537870
1960.72, 0.0532090
1961.47, 0.0524650
1962.21, 0.0515560
1962.95, 0.0508950
1963.7, 0.0499860
1964.44, 0.0493260
1965.18, 0.0489120
1965.93, 0.0482510
1966.67, 0.0472600
1967.42, 0.0464340
1968.17, 0.0459380
1968.92, 0.0454420
1969.66, 0.0446990
1970.41, 0.0439550
1971.16, 0.0431290
1971.91, 0.0425500
1972.66, 0.0420550
1973.41, 0.0412290
1974.16, 0.0404850
1974.92, 0.0399890
1975.67, 0.0394930
1976.42, 0.0388320
1977.18, 0.0382540
1977.93, 0.0377580
1978.69, 0.0371800
1979.44, 0.0366840
1980.2, 0.0361060
1980.95, 0.0356930
1981.71, 0.0351970
1982.47, 0.0346190
1983.23, 0.0341230
1983.99, 0.0336270
1984.74, 0.0332140
1985.51, 0.0327180
1986.27, 0.0324710
1987.03, 0.0322230
1987.79, 0.0318100
1988.55, 0.0313140
1989.32, 0.0309010
1990.08, 0.0306530
1990.84, 0.0302400
1991.61, 0.0297440
1992.37, 0.0294140
1993.14, 0.0292480
1993.9, 0.0290000
1994.67, 0.0286700
1995.44, 0.0283390
1996.21, 0.0281740
1996.98, 0.0280920
1997.75, 0.0280920
1998.52, 0.0278440
1999.29, 0.0275130
2000.06, 0.0275960
2000.83, 0.0274310
2001.6, 0.0271830
2002.38, 0.0271000
2003.15, 0.0270170
2003.93, 0.0269350
2004.7, 0.0266870
2005.48, 0.0264390
2006.25, 0.0262740
2007.03, 0.0261910
2007.81, 0.0261910
2008.58, 0.0261910
2009.36, 0.0261910
2010.14, 0.0260260
2010.92, 0.0260260
2011.7, 0.0258610
2012.48, 0.0258610
2013.26, 0.0260260
2014.05, 0.0260260
2014.83, 0.0258610
2015.61, 0.0256960
2016.4, 0.0257780
2017.18, 0.0258610
2017.97, 0.0257780
2018.75, 0.0256130
2019.54, 0.0256130
2020.32, 0.0256960
2021.11, 0.0256130
2021.9, 0.0256130
2022.69, 0.0255300
2023.48, 0.0254480
2024.27, 0.0254480
2025.06, 0.0253650
2025.85, 0.0253650
2026.64, 0.0255300
2027.44, 0.0254480
2028.23, 0.0253650
2029.02, 0.0254480
2029.82, 0.0255300
2030.61, 0.0254480
2031.41, 0.0254480
2032.2, 0.0254480
2033.0, 0.0255300
2033.8, 0.0255300
2034.6, 0.0255300
2035.4, 0.0255300
2036.2, 0.0255300
2037.0, 0.0256130
2037.8, 0.0256960
2038.6, 0.0256960
2039.4, 0.0256130
2040.2, 0.0253650
2041.01, 0.0253650
2041.81, 0.0255300
2042.61, 0.0255300
2043.42, 0.0254480
2044.22, 0.0254480
2045.03, 0.0255300
2045.84, 0.0256130
2046.65, 0.0257780
2047.46, 0.0257780
2048.26, 0.0256960
2049.07, 0.0255300
