Database of Origin,USGS Spectral Database
Sample Description,See USGS database for additional info
Date Added,2017-05-12 01:53:09.362284

Data ID,USGS_zun01          
Sample ID,zunyite_gds241b.23761
Mineral Name,zunyite

Wavelength
205.1, 0.497100
213.1, 0.428000
221.1, 0.383800
229.1, 0.387200
236.1, 0.417400
242.1, 0.453600
248.1, 0.489300
253.6, 0.516600
258.6, 0.534200
263.6, 0.542100
268.6, 0.543700
273.1, 0.544600
277.1, 0.539300
281.1, 0.532500
285.1, 0.521200
289.1, 0.509100
293.1, 0.496100
297.1, 0.485600
301.1, 0.484000
305.1, 0.476800
309.1, 0.471200
313.1, 0.466500
317.1, 0.462900
321.1, 0.460900
325.1, 0.458100
329.1, 0.455100
333.1, 0.454300
337.1, 0.452400
341.1, 0.451500
345.1, 0.451100
349.1, 0.449700
353.1, 0.450900
357.1, 0.450400
360.6, 0.449700
363.6, 0.450500
366.6, 0.450500
369.6, 0.450500
372.6, 0.451400
375.6, 0.451900
378.6, 0.454100
381.1, 0.455200
383.1, 0.456500
385.1, 0.458400
387.1, 0.460200
389.1, 0.463300
391.1, 0.465500
393.1, 0.468700
395.1, 0.472500
397.1, 0.476500
399.1, 0.481200
401.1, 0.485500
403.1, 0.490300
405.1, 0.494000
407.1, 0.497200
409.1, 0.500400
411.1, 0.505000
412.8, 0.506200
415.8, 0.509500
418.8, 0.512300
421.8, 0.514400
424.8, 0.516100
427.8, 0.517800
430.8, 0.519400
433.8, 0.520700
436.8, 0.522100
439.8, 0.523100
442.8, 0.524800
445.8, 0.525500
448.8, 0.528000
451.3, 0.528800
453.3, 0.529800
455.3, 0.530200
457.3, 0.530200
459.3, 0.531500
461.3, 0.531900
463.3, 0.532500
465.3, 0.533500
467.3, 0.533100
469.3, 0.533800
471.3, 0.534600
473.3, 0.534500
475.3, 0.535300
477.3, 0.535500
479.3, 0.536100
481.3, 0.536500
483.3, 0.537500
485.3, 0.537300
487.3, 0.538300
489.3, 0.538300
491.3, 0.538400
493.3, 0.539200
495.3, 0.539600
497.3, 0.539500
499.3, 0.540800
501.3, 0.540400
503.3, 0.541300
505.3, 0.541800
507.3, 0.541900
509.3, 0.542000
511.3, 0.542900
513.3, 0.543100
515.3, 0.543500
517.3, 0.544100
519.3, 0.544200
521.3, 0.544600
523.3, 0.545300
525.3, 0.545300
527.3, 0.545900
529.3, 0.546800
531.3, 0.546600
533.3, 0.547500
535.3, 0.547400
537.3, 0.548600
539.3, 0.547800
541.3, 0.549900
543.3, 0.549400
545.3, 0.550000
547.3, 0.550500
549.3, 0.551100
551.3, 0.552400
553.3, 0.552800
555.3, 0.553500
557.3, 0.555100
559.3, 0.554600
561.3, 0.556700
563.3, 0.558500
565.3, 0.558100
567.3, 0.558800
569.3, 0.559500
571.3, 0.559800
573.3, 0.561000
575.3, 0.560900
577.3, 0.561500
579.3, 0.562800
581.3, 0.563100
583.3, 0.562800
585.3, 0.564100
587.3, 0.564300
589.3, 0.565900
591.3, 0.566000
593.3, 0.567100
595.3, 0.567700
597.3, 0.568600
599.3, 0.570200
601.1, 0.570400
602.7, 0.571500
604.3, 0.571700
605.9, 0.573700
607.5, 0.573800
609.1, 0.573800
610.7, 0.575100
612.3, 0.575300
613.9, 0.576900
615.5, 0.576900
617.1, 0.577400
618.7, 0.579100
620.3, 0.580700
621.9, 0.580400
623.5, 0.581700
625.1, 0.582500
626.7, 0.583000
628.3, 0.584200
629.9, 0.584900
631.7, 0.584900
633.7, 0.586300
635.7, 0.587200
637.7, 0.588200
639.7, 0.589600
641.7, 0.590400
643.7, 0.592300
645.7, 0.593300
647.7, 0.594300
649.7, 0.594200
651.7, 0.595600
653.7, 0.596800
655.7, 0.597600
657.7, 0.598800
659.7, 0.600300
661.7, 0.601100
663.7, 0.602200
665.7, 0.601900
667.7, 0.603200
670.2, 0.604100
673.2, 0.605300
676.2, 0.606700
679.2, 0.608400
682.2, 0.609400
685.2, 0.609500
688.2, 0.612200
691.2, 0.612300
694.2, 0.613800
697.2, 0.615200
700.2, 0.615100
702.0, 0.614900
704.0, 0.615000
706.0, 0.616300
708.0, 0.616500
710.0, 0.617000
712.0, 0.617700
714.0, 0.618000
716.0, 0.618700
718.0, 0.620000
720.0, 0.620700
722.0, 0.620600
724.0, 0.621700
726.0, 0.622400
728.0, 0.622300
730.0, 0.622900
732.0, 0.624000
734.0, 0.625200
736.0, 0.625300
738.0, 0.625900
740.0, 0.626700
742.0, 0.627200
744.0, 0.628700
746.0, 0.630100
748.0, 0.629400
750.5, 0.631100
753.5, 0.632200
756.5, 0.632600
759.5, 0.634500
762.5, 0.635300
765.5, 0.635800
768.5, 0.638600
771.5, 0.639500
774.5, 0.640600
777.5, 0.641700
781.0, 0.643800
785.0, 0.644600
789.0, 0.647200
793.0, 0.648600
797.0, 0.650600
801.5, 0.652400
806.5, 0.654500
811.5, 0.656200
816.5, 0.659200
822.0, 0.660500
828.0, 0.663000
835.0, 0.666600
843.0, 0.668100
851.0, 0.656200
859.0, 0.660800
871.0, 0.667400
883.0, 0.674600
894.0, 0.680800
904.0, 0.685900
914.0, 0.688400
924.0, 0.693000
933.0, 0.698000
941.0, 0.701800
949.0, 0.700600
957.0, 0.692900
964.0, 0.691600
970.0, 0.709800
976.0, 0.714900
982.0, 0.720000
988.0, 0.721300
994.0, 0.726500
1000.0, 0.730400
1006.0, 0.731800
1012.0, 0.732700
1018.0, 0.735100
1023.5, 0.739500
1028.5, 0.740500
1033.5, 0.743900
1038.5, 0.745100
1043.5, 0.745300
1048.5, 0.747600
1053.5, 0.749600
1058.5, 0.749800
1063.5, 0.751600
1068.5, 0.752200
1073.5, 0.753900
1078.5, 0.755200
1083.5, 0.754300
1088.5, 0.756800
1093.5, 0.759400
1098.5, 0.759100
1103.5, 0.759900
1108.5, 0.762700
1113.5, 0.762900
1118.5, 0.764200
1123.5, 0.766300
1128.5, 0.767400
1133.5, 0.769100
1138.5, 0.768700
1143.5, 0.768500
1148.5, 0.769100
1153.5, 0.769200
1158.5, 0.771500
1163.5, 0.773100
1168.5, 0.772800
1173.5, 0.772000
1178.5, 0.773500
1183.5, 0.777300
1188.5, 0.779600
1193.5, 0.779600
1198.5, 0.778400
1203.5, 0.779100
1208.5, 0.778600
1213.5, 0.778300
1218.5, 0.776200
1223.5, 0.773600
1228.5, 0.763400
1233.5, 0.763400
1238.5, 0.770200
1243.5, 0.775900
1248.5, 0.777000
1253.5, 0.777600
1258.5, 0.779900
1263.5, 0.778700
1268.5, 0.779300
1273.5, 0.779100
1278.5, 0.777500
1283.5, 0.776400
1288.5, 0.774300
1293.5, 0.772300
1298.5, 0.769600
1303.5, 0.766200
1308.5, 0.763300
1313.5, 0.758300
1318.5, 0.754700
1323.5, 0.752200
1328.5, 0.750100
1333.5, 0.746200
1338.5, 0.746100
1343.5, 0.744300
1348.5, 0.743200
1353.5, 0.739700
1358.5, 0.735600
1363.5, 0.733100
1368.5, 0.726500
1373.5, 0.714800
1378.5, 0.698700
1383.5, 0.684300
1388.5, 0.660900
1393.5, 0.620400
1398.5, 0.542900
1403.5, 0.459500
1408.5, 0.371900
1413.5, 0.429500
1418.5, 0.521000
1423.5, 0.585600
1428.5, 0.626100
1433.5, 0.649200
1438.5, 0.658600
1443.5, 0.664200
1448.5, 0.679200
1453.5, 0.685200
1458.5, 0.672100
1463.5, 0.659200
1468.5, 0.636400
1473.5, 0.573300
1478.5, 0.519200
1483.5, 0.564600
1488.5, 0.628800
1493.5, 0.658300
1498.5, 0.683400
1503.5, 0.702800
1508.5, 0.713100
1513.5, 0.717300
1518.5, 0.715500
1523.5, 0.709500
1528.5, 0.697500
1534.0, 0.689500
1540.0, 0.672900
1546.0, 0.656400
1552.0, 0.642200
1558.0, 0.641000
1564.0, 0.651100
1570.5, 0.667000
1577.5, 0.684300
1584.5, 0.694800
1591.5, 0.704100
1598.5, 0.711000
1605.5, 0.720600
1612.5, 0.730200
1619.5, 0.738100
1626.5, 0.745400
1633.5, 0.749900
1640.5, 0.752400
1647.5, 0.755600
1654.5, 0.760700
1661.5, 0.761900
1668.5, 0.761800
1676.0, 0.762400
1684.0, 0.762000
1692.0, 0.763600
1700.0, 0.761000
1708.0, 0.754100
1716.0, 0.742600
1724.0, 0.729200
1732.0, 0.718600
1740.0, 0.707300
1748.0, 0.700000
1756.0, 0.685000
1764.0, 0.670900
1772.0, 0.645700
1780.0, 0.637100
1788.0, 0.656600
1796.0, 0.697100
1805.0, 0.723600
1815.0, 0.739300
1825.0, 0.745700
1835.0, 0.749500
1845.0, 0.748300
1855.0, 0.742200
1865.0, 0.734500
1875.0, 0.722600
1885.0, 0.710500
1895.0, 0.700000
1905.0, 0.696500
1915.0, 0.689200
1925.0, 0.651200
1935.0, 0.666300
1945.0, 0.685900
1955.0, 0.685400
1965.0, 0.682800
1975.0, 0.682200
1985.0, 0.681600
1995.0, 0.677900
2005.0, 0.673900
2015.0, 0.670200
2025.0, 0.674800
2035.0, 0.678600
2045.0, 0.676600
2055.0, 0.664900
2065.0, 0.645900
2075.0, 0.599200
2085.0, 0.540000
2095.0, 0.487400
2105.0, 0.426000
2115.0, 0.354400
2125.0, 0.284500
2135.0, 0.242400
2145.0, 0.274700
2155.0, 0.346300
2165.0, 0.381600
2175.0, 0.413000
2185.0, 0.448400
2195.0, 0.445900
2205.0, 0.428900
2215.0, 0.441900
2225.0, 0.449900
2235.0, 0.456400
2245.0, 0.474700
2255.0, 0.495300
2265.0, 0.507200
2275.0, 0.507600
2285.0, 0.504600
2295.0, 0.497700
2305.0, 0.493600
2315.0, 0.483500
2325.0, 0.474900
2335.0, 0.473400
2345.0, 0.464800
2355.0, 0.449600
2365.0, 0.434100
2375.0, 0.427000
2386.0, 0.418100
2400.0, 0.393000
2418.0, 0.356800
2440.0, 0.326400
2466.0, 0.284500
2496.0, 0.263500
2528.0, 0.255300
2560.0, 0.262500
2592.0, 0.286900
2624.0, 0.262300
2656.0, 0.226000
2688.0, 0.171600
2720.0, 0.124300
2752.0, 0.0371700
2784.0, 0.0458500
2816.0, 0.0882200
2848.0, 0.0668500
2880.0, 0.0642200
2912.0, 0.0442500
2944.0, 0.0259600
2976.0, 0.0143900
