Database of Origin, USGS Spectral Database
Sample Description, See USGS database for additional info
Date Added,2016-08-10 02:55:09.181613

Data ID,USGS_hem06          
Sample ID, hematite_gds69.9373
Mineral Name, hematite
Material Class,Oxide

Wavelength
1562.9, 0.121912
1563.38, 0.121717
1563.85, 0.121570
1564.32, 0.121766
1564.79, 0.122059
1565.26, 0.122059
1565.74, 0.122059
1566.21, 0.122206
1566.68, 0.122010
1567.16, 0.121912
1567.63, 0.122010
1568.1, 0.122059
1568.58, 0.121815
1569.05, 0.121766
1569.53, 0.122059
1570.0, 0.121961
1570.48, 0.122059
1570.96, 0.122255
1571.43, 0.122304
1571.91, 0.122108
1572.39, 0.122255
1572.86, 0.122304
1573.34, 0.122352
1573.82, 0.122499
1574.3, 0.122401
1574.77, 0.122352
1575.25, 0.122255
1575.73, 0.122352
1576.21, 0.122548
1576.69, 0.122450
1577.17, 0.122597
1577.65, 0.122646
1578.13, 0.122646
1578.61, 0.122841
1579.09, 0.123135
1579.57, 0.123086
1580.05, 0.122792
1580.54, 0.122792
1581.02, 0.122841
1581.5, 0.122695
1581.98, 0.122695
1582.47, 0.122890
1582.95, 0.123086
1583.43, 0.123281
1583.92, 0.123281
1584.4, 0.123183
1584.88, 0.123281
1585.37, 0.123232
1585.85, 0.123135
1586.34, 0.123183
1586.82, 0.123428
1587.31, 0.123428
1587.8, 0.123232
1588.28, 0.123330
1588.77, 0.123428
1589.26, 0.123428
1589.74, 0.123379
1590.23, 0.123428
1590.72, 0.123526
1591.21, 0.123526
1591.7, 0.123672
1592.19, 0.123770
1592.67, 0.123623
1593.16, 0.123574
1593.65, 0.123721
1594.14, 0.123868
1594.63, 0.123966
1595.12, 0.123966
1595.61, 0.123966
1596.11, 0.124063
1596.6, 0.124112
1597.09, 0.124063
1597.58, 0.124014
1598.08, 0.123917
1598.57, 0.123917
1599.06, 0.124063
1599.55, 0.124161
1600.05, 0.124210
1600.54, 0.124357
1601.04, 0.124357
1601.53, 0.124357
1602.03, 0.124454
1602.52, 0.124503
1603.02, 0.124503
1603.51, 0.124552
1604.01, 0.124503
1604.5, 0.124503
1605.0, 0.124650
1605.5, 0.124699
1606.0, 0.124992
1606.49, 0.125188
1606.99, 0.125041
1607.49, 0.124992
1607.99, 0.124845
1608.49, 0.124699
1608.99, 0.124992
1609.49, 0.125236
1609.99, 0.125139
1610.49, 0.125090
1610.99, 0.125090
1611.49, 0.125139
1611.99, 0.125334
1612.49, 0.125481
1612.99, 0.125481
1613.49, 0.125530
1614.0, 0.125676
1614.5, 0.125725
1615.0, 0.125676
1615.51, 0.125725
1616.01, 0.125872
1616.51, 0.125823
1617.02, 0.125774
1617.52, 0.125872
1618.03, 0.125774
1618.53, 0.125872
1619.04, 0.125921
1619.54, 0.126019
1620.05, 0.126067
1620.55, 0.126019
1621.06, 0.126165
1621.57, 0.126312
1622.08, 0.126263
1622.58, 0.126312
1623.09, 0.126312
1623.6, 0.126165
1624.11, 0.126067
1624.62, 0.126214
1625.13, 0.126605
1625.64, 0.126801
1626.15, 0.126605
1626.66, 0.126458
1627.17, 0.126507
1627.68, 0.126458
1628.19, 0.126507
1628.7, 0.126605
1629.21, 0.126752
1629.72, 0.126703
1630.24, 0.126801
1630.75, 0.127045
1631.26, 0.126898
1631.78, 0.127045
1632.29, 0.127192
1632.8, 0.127143
1633.32, 0.126996
1633.83, 0.126947
1634.35, 0.126996
1634.86, 0.126898
1635.38, 0.126947
1635.9, 0.127192
1636.41, 0.127289
1636.93, 0.127143
1637.45, 0.126996
1637.96, 0.127143
1638.48, 0.127241
1639.0, 0.127192
1639.52, 0.127241
1640.04, 0.127387
1640.56, 0.127534
1641.08, 0.127632
1641.59, 0.127387
1642.11, 0.127289
1642.63, 0.127338
1643.16, 0.127583
1643.68, 0.127681
1644.2, 0.127681
1644.72, 0.127729
1645.24, 0.127778
1645.76, 0.127632
1646.29, 0.127534
1646.81, 0.127729
1647.33, 0.127778
1647.86, 0.127876
1648.38, 0.127925
1648.9, 0.127974
1649.43, 0.127974
1649.95, 0.127778
1650.48, 0.127827
1651.0, 0.127876
1651.53, 0.127729
1652.06, 0.127729
1652.58, 0.127974
1653.11, 0.128120
1653.64, 0.128218
1654.17, 0.128218
1654.69, 0.128267
1655.22, 0.128120
1655.75, 0.127925
1656.28, 0.128023
1656.81, 0.128072
1657.34, 0.128218
1657.87, 0.128560
1658.4, 0.128658
1658.93, 0.128463
1659.46, 0.128512
1659.99, 0.128658
1660.52, 0.128609
1661.05, 0.128512
1661.59, 0.128512
1662.12, 0.128512
1662.65, 0.128609
1663.19, 0.128707
1663.72, 0.128805
1664.26, 0.128805
1664.79, 0.128854
1665.32, 0.129098
1665.86, 0.129098
1666.39, 0.129000
1666.93, 0.129049
1667.47, 0.129098
1668.0, 0.129343
1668.54, 0.129734
1669.08, 0.129636
1669.61, 0.129391
1670.15, 0.129440
1670.69, 0.129587
1671.23, 0.129489
1671.77, 0.129489
1672.31, 0.129734
1672.85, 0.129538
1673.39, 0.129489
1673.93, 0.129489
1674.47, 0.129391
1675.01, 0.129636
1675.55, 0.129978
1676.09, 0.129978
1676.64, 0.129929
1677.18, 0.129929
1677.72, 0.129929
1678.26, 0.129978
1678.81, 0.129978
1679.35, 0.130027
1679.89, 0.130027
1680.44, 0.130076
1680.98, 0.130174
1681.53, 0.130222
1682.07, 0.130320
1682.62, 0.130369
1683.17, 0.130271
1683.71, 0.130369
1684.26, 0.130516
1684.81, 0.130613
1685.36, 0.130662
1685.9, 0.130662
1686.45, 0.130858
1687.0, 0.130858
1687.55, 0.130565
1688.1, 0.130516
1688.65, 0.130662
1689.2, 0.130907
1689.75, 0.130956
1690.3, 0.130858
1690.85, 0.130809
1691.41, 0.131005
1691.96, 0.130907
1692.51, 0.130809
1693.06, 0.130858
1693.61, 0.131005
1694.17, 0.131102
1694.72, 0.131151
1695.28, 0.131102
1695.83, 0.131347
1696.39, 0.131542
1696.94, 0.131444
1697.5, 0.131444
1698.05, 0.131444
1698.61, 0.131444
1699.17, 0.131444
1699.72, 0.131591
1700.28, 0.131591
1700.84, 0.131591
1701.4, 0.131640
1701.95, 0.131591
1702.51, 0.131591
1703.07, 0.131542
1703.63, 0.131591
1704.19, 0.131738
1704.75, 0.131836
1705.31, 0.131884
1705.88, 0.131884
1706.44, 0.131689
1707.0, 0.131787
1707.56, 0.131738
1708.12, 0.131787
1708.69, 0.132080
1709.25, 0.132080
1709.81, 0.131884
1710.38, 0.131738
1710.94, 0.131933
1711.51, 0.132080
1712.07, 0.132031
1712.64, 0.132031
1713.2, 0.131982
1713.77, 0.132031
1714.34, 0.132080
1714.9, 0.131933
1715.47, 0.132031
1716.04, 0.132275
1716.61, 0.132471
1717.18, 0.132324
1717.74, 0.132227
1718.31, 0.132422
1718.88, 0.132471
1719.45, 0.132471
1720.02, 0.132422
1720.59, 0.132373
1721.17, 0.132275
1721.74, 0.132373
1722.31, 0.132569
1722.88, 0.132471
1723.45, 0.132569
1724.03, 0.132911
1724.6, 0.132911
1725.18, 0.132715
1725.75, 0.132764
1726.33, 0.132715
1726.9, 0.132618
1727.48, 0.132667
1728.05, 0.132862
1728.63, 0.132764
1729.2, 0.132569
1729.78, 0.132520
1730.36, 0.132862
1730.94, 0.133058
1731.51, 0.133009
1732.09, 0.133009
1732.67, 0.133058
1733.25, 0.132960
1733.83, 0.132862
1734.41, 0.133058
1734.99, 0.133155
1735.57, 0.133204
1736.15, 0.133204
1736.73, 0.133400
1737.32, 0.133449
1737.9, 0.133351
1738.48, 0.133351
1739.07, 0.133449
1739.65, 0.133449
1740.23, 0.133351
1740.82, 0.133595
1741.4, 0.133693
1741.99, 0.133693
1742.57, 0.133742
1743.16, 0.133693
1743.74, 0.133693
1744.33, 0.133791
1744.92, 0.133889
1745.51, 0.134084
1746.09, 0.134231
1746.68, 0.134182
1747.27, 0.134133
1747.86, 0.134182
1748.45, 0.134133
1749.04, 0.134133
1749.63, 0.134231
1750.22, 0.134280
1750.81, 0.134231
1751.4, 0.134377
1751.99, 0.134524
1752.59, 0.134524
1753.18, 0.134377
1753.77, 0.134622
1754.37, 0.134866
1754.96, 0.134671
1755.56, 0.134475
1756.15, 0.134377
1756.74, 0.134475
1757.34, 0.134720
1757.94, 0.134720
1758.53, 0.134817
1759.13, 0.134866
1759.73, 0.134720
1760.32, 0.134720
1760.92, 0.134768
1761.52, 0.134915
1762.12, 0.135062
1762.72, 0.135208
1763.32, 0.135257
1763.92, 0.135306
1764.52, 0.135306
1765.12, 0.135160
1765.72, 0.134964
1766.32, 0.134964
1766.92, 0.135208
1767.53, 0.135404
1768.13, 0.135404
1768.73, 0.135404
1769.34, 0.135453
1769.94, 0.135502
1770.55, 0.135648
1771.15, 0.135697
1771.76, 0.135648
1772.36, 0.135697
1772.97, 0.135551
1773.57, 0.135599
1774.18, 0.135746
1774.79, 0.135697
1775.4, 0.135697
1776.0, 0.135697
1776.61, 0.135697
1777.22, 0.135746
1777.83, 0.135697
1778.44, 0.135551
1779.05, 0.135599
1779.66, 0.135795
1780.27, 0.135746
1780.88, 0.135795
1781.5, 0.135942
1782.11, 0.135991
1782.72, 0.135893
1783.33, 0.135893
1783.95, 0.135844
1784.56, 0.135697
1785.18, 0.135795
1785.79, 0.136039
1786.41, 0.136039
1787.02, 0.135991
1787.64, 0.135942
1788.26, 0.135893
1788.87, 0.135844
1789.49, 0.135942
1790.11, 0.136186
1790.73, 0.136235
1791.35, 0.136137
1791.96, 0.136137
1792.58, 0.136039
1793.21, 0.135991
1793.83, 0.136088
1794.45, 0.136137
1795.07, 0.136235
1795.69, 0.136284
1796.31, 0.136479
1796.93, 0.136528
1797.56, 0.136333
1798.18, 0.136186
1798.8, 0.136382
1799.43, 0.136577
1800.05, 0.136528
1800.68, 0.136430
1801.3, 0.136479
1801.93, 0.136430
1802.56, 0.136479
1803.18, 0.136430
1803.81, 0.136675
1804.44, 0.136870
1805.07, 0.136626
1805.7, 0.136528
1806.33, 0.136528
1806.95, 0.136577
1807.58, 0.136479
1808.22, 0.136382
1808.85, 0.136479
1809.48, 0.136675
1810.11, 0.136822
1810.74, 0.136870
1811.38, 0.136870
1812.01, 0.137066
1812.64, 0.137017
1813.28, 0.136919
1813.91, 0.136870
1814.55, 0.137115
1815.18, 0.137115
1815.82, 0.136870
1816.45, 0.137017
1817.09, 0.137359
1817.73, 0.137359
1818.36, 0.137213
1819.0, 0.137115
1819.64, 0.137213
1820.28, 0.137261
1820.92, 0.137408
1821.56, 0.137604
1822.2, 0.137701
1822.84, 0.137653
1823.48, 0.137799
1824.12, 0.137848
1824.76, 0.137897
1825.41, 0.137701
1826.05, 0.137555
1826.69, 0.137653
1827.34, 0.137750
1827.98, 0.137799
1828.63, 0.137946
1829.27, 0.138044
1829.92, 0.137995
1830.56, 0.137995
1831.21, 0.138044
1831.86, 0.137946
1832.5, 0.137995
1833.15, 0.137946
1833.8, 0.137946
1834.45, 0.138239
1835.1, 0.138435
1835.75, 0.138435
1836.4, 0.138435
1837.05, 0.138239
1837.7, 0.138190
1838.35, 0.138337
1839.01, 0.138484
1839.66, 0.138630
1840.31, 0.138679
1840.96, 0.138630
1841.62, 0.138484
1842.27, 0.138728
1842.93, 0.138875
1843.58, 0.138826
1844.24, 0.138923
1844.9, 0.138875
1845.55, 0.138923
1846.21, 0.138875
1846.87, 0.138728
1847.53, 0.138777
1848.18, 0.139021
1848.84, 0.139217
1849.5, 0.139168
1850.16, 0.138923
1850.82, 0.138972
1851.48, 0.139168
1852.14, 0.139070
1852.81, 0.139070
1853.47, 0.139266
1854.13, 0.139363
1854.8, 0.139412
1855.46, 0.139217
1856.12, 0.139168
1856.79, 0.139363
1857.45, 0.139461
1858.12, 0.139363
1858.79, 0.139363
1859.45, 0.139315
1860.12, 0.139315
1860.79, 0.139412
1861.46, 0.139461
1862.12, 0.139412
1862.79, 0.139461
1863.46, 0.139510
1864.13, 0.139461
1864.8, 0.139510
1865.48, 0.139608
1866.15, 0.139412
1866.82, 0.139315
1867.49, 0.139412
1868.16, 0.139412
1868.84, 0.139510
1869.51, 0.139510
1870.19, 0.139412
1870.86, 0.139412
1871.54, 0.139510
1872.21, 0.139510
1872.89, 0.139363
1873.56, 0.139412
1874.24, 0.139510
1874.92, 0.139559
1875.6, 0.139657
1876.28, 0.139608
1876.96, 0.139657
1877.64, 0.139657
1878.32, 0.139510
1879.0, 0.139461
1879.68, 0.139608
1880.36, 0.139608
1881.04, 0.139706
1881.73, 0.139754
1882.41, 0.139559
1883.09, 0.139412
1883.78, 0.139559
1884.46, 0.139852
1885.15, 0.139950
1885.83, 0.139706
1886.52, 0.139608
1887.21, 0.139608
1887.89, 0.139706
1888.58, 0.139706
1889.27, 0.139706
1889.96, 0.139706
1890.65, 0.139608
1891.34, 0.139657
1892.03, 0.139608
1892.72, 0.139559
1893.41, 0.139510
1894.1, 0.139608
1894.79, 0.139706
1895.49, 0.139754
1896.18, 0.139608
1896.87, 0.139461
1897.57, 0.139510
1898.26, 0.139608
1898.96, 0.139608
1899.65, 0.139754
1900.35, 0.139754
1901.05, 0.139803
1901.74, 0.139657
1902.44, 0.139657
1903.14, 0.139852
1903.84, 0.139803
1904.54, 0.139657
1905.24, 0.139706
1905.94, 0.139852
1906.64, 0.139852
1907.34, 0.139901
1908.04, 0.139901
1908.75, 0.139999
1909.45, 0.140194
1910.15, 0.140194
1910.86, 0.140097
1911.56, 0.140097
1912.27, 0.140292
1912.97, 0.140390
1913.68, 0.140292
1914.39, 0.140243
1915.09, 0.140292
1915.8, 0.140292
1916.51, 0.140146
1917.22, 0.140341
1917.93, 0.140390
1918.64, 0.140341
1919.35, 0.140537
1920.06, 0.140781
1920.77, 0.140928
1921.48, 0.140879
1922.19, 0.140879
1922.91, 0.140879
1923.62, 0.140977
1924.33, 0.141025
1925.05, 0.140977
1925.76, 0.140977
1926.48, 0.140928
1927.19, 0.140879
1927.91, 0.141123
1928.63, 0.141319
1929.35, 0.141270
1930.07, 0.141270
1930.78, 0.141319
1931.5, 0.141172
1932.22, 0.141319
1932.94, 0.141270
1933.66, 0.141221
1934.39, 0.141416
1935.11, 0.141563
1935.83, 0.141514
1936.55, 0.141514
1937.28, 0.141563
1938.0, 0.141710
1938.73, 0.141954
1939.45, 0.141954
1940.18, 0.141759
1940.9, 0.141856
1941.63, 0.141856
1942.36, 0.141856
1943.09, 0.142052
1943.81, 0.142150
1944.54, 0.142150
1945.27, 0.142247
1946.0, 0.142101
1946.73, 0.142150
1947.47, 0.142345
1948.2, 0.142394
1948.93, 0.142247
1949.66, 0.142394
1950.4, 0.142394
1951.13, 0.142394
1951.86, 0.142345
1952.6, 0.142247
1953.34, 0.142492
1954.07, 0.142687
1954.81, 0.142541
1955.55, 0.142394
1956.29, 0.142247
1957.02, 0.142394
1957.76, 0.142639
1958.5, 0.142492
1959.24, 0.142443
1959.98, 0.142541
1960.72, 0.142541
1961.47, 0.142541
1962.21, 0.142687
1962.95, 0.142590
1963.7, 0.142443
1964.44, 0.142541
1965.18, 0.142639
1965.93, 0.142590
1966.67, 0.142736
1967.42, 0.142883
1968.17, 0.142785
1968.92, 0.142736
1969.66, 0.142834
1970.41, 0.142834
1971.16, 0.142785
1971.91, 0.142736
1972.66, 0.142736
1973.41, 0.142785
1974.16, 0.142785
1974.92, 0.142785
1975.67, 0.142834
1976.42, 0.142834
1977.18, 0.142736
1977.93, 0.142932
1978.69, 0.142932
1979.44, 0.142736
1980.2, 0.142736
1980.95, 0.142883
1981.71, 0.142883
1982.47, 0.142687
1983.23, 0.142736
1983.99, 0.142883
1984.74, 0.142932
1985.51, 0.142981
1986.27, 0.143127
1987.03, 0.143176
1987.79, 0.143127
1988.55, 0.143176
1989.32, 0.143176
1990.08, 0.143225
1990.84, 0.143225
1991.61, 0.143078
1992.37, 0.143127
1993.14, 0.143274
1993.9, 0.143274
1994.67, 0.143127
1995.44, 0.143176
1996.21, 0.143421
1996.98, 0.143616
1997.75, 0.143567
1998.52, 0.143518
1999.29, 0.143616
2000.06, 0.143518
2000.83, 0.143616
2001.6, 0.143812
2002.38, 0.143763
2003.15, 0.143616
2003.93, 0.143812
2004.7, 0.143958
2005.48, 0.143958
2006.25, 0.143909
2007.03, 0.144007
2007.81, 0.144105
2008.58, 0.144007
2009.36, 0.144007
2010.14, 0.144056
2010.92, 0.144154
2011.7, 0.144301
2012.48, 0.144496
2013.26, 0.144545
2014.05, 0.144643
2014.83, 0.144740
2015.61, 0.144789
2016.4, 0.144936
2017.18, 0.144936
2017.97, 0.144692
2018.75, 0.144594
2019.54, 0.144740
2020.32, 0.145034
2021.11, 0.145034
2021.9, 0.144936
2022.69, 0.145034
2023.48, 0.145180
2024.27, 0.145229
2025.06, 0.145229
2025.85, 0.145327
2026.64, 0.145327
2027.44, 0.145327
2028.23, 0.145376
2029.02, 0.145425
2029.82, 0.145278
2030.61, 0.145376
2031.41, 0.145425
2032.2, 0.145718
2033.0, 0.145816
2033.8, 0.145816
2034.6, 0.145767
2035.4, 0.145865
2036.2, 0.146011
2037.0, 0.146109
2037.8, 0.146060
2038.6, 0.146109
2039.4, 0.146158
2040.2, 0.146207
2041.01, 0.146158
2041.81, 0.146109
2042.61, 0.146256
2043.42, 0.146354
2044.22, 0.146256
2045.03, 0.146305
2045.84, 0.146305
2046.65, 0.146256
2047.46, 0.146354
2048.26, 0.146354
2049.07, 0.146305
2049.88, 0.146402
2050.69, 0.146451
2051.51, 0.146354
2052.32, 0.146354
2053.13, 0.146451
2053.94, 0.146451
2054.76, 0.146451
2055.57, 0.146549
2056.39, 0.146598
2057.2, 0.146549
2058.02, 0.146500
2058.84, 0.146598
2059.66, 0.146647
2060.48, 0.146549
2061.29, 0.146500
2062.11, 0.146549
2062.94, 0.146647
2063.76, 0.146647
2064.58, 0.146451
2065.4, 0.146354
2066.22, 0.146402
2067.05, 0.146549
2067.87, 0.146549
2068.7, 0.146549
2069.52, 0.146647
2070.35, 0.146647
2071.18, 0.146549
2072.0, 0.146549
2072.83, 0.146500
2073.66, 0.146500
2074.49, 0.146598
2075.32, 0.146696
2076.15, 0.146696
2076.98, 0.146696
2077.82, 0.146696
2078.65, 0.146647
2079.48, 0.146598
2080.32, 0.146598
2081.15, 0.146647
2081.99, 0.146745
2082.83, 0.146940
2083.66, 0.146989
2084.5, 0.146842
2085.34, 0.146794
2086.18, 0.146891
2087.02, 0.147087
2087.86, 0.147038
2088.7, 0.146745
2089.54, 0.146696
2090.39, 0.146745
2091.23, 0.146940
2092.07, 0.147038
2092.92, 0.147233
2093.76, 0.147331
2094.61, 0.147282
2095.45, 0.147185
2096.3, 0.147185
2097.15, 0.147233
2098.0, 0.147331
2098.85, 0.147331
2099.7, 0.147331
2100.55, 0.147282
2101.4, 0.147282
2102.25, 0.147380
2103.1, 0.147478
2103.96, 0.147527
2104.81, 0.147429
2105.67, 0.147380
2106.52, 0.147478
2107.38, 0.147527
2108.24, 0.147625
2109.09, 0.147673
2109.95, 0.147673
2110.81, 0.147673
2111.67, 0.147576
2112.53, 0.147722
2113.39, 0.147967
2114.25, 0.148016
2115.12, 0.147967
2115.98, 0.148162
2116.84, 0.148358
2117.71, 0.148407
2118.58, 0.148504
2119.44, 0.148456
2120.31, 0.148504
2121.18, 0.148407
2122.04, 0.148553
2122.91, 0.148700
2123.78, 0.148700
2124.65, 0.148602
2125.52, 0.148749
2126.4, 0.148944
2127.27, 0.148944
2128.14, 0.148895
2129.02, 0.149091
2129.89, 0.149335
2130.77, 0.149189
2131.64, 0.149091
2132.52, 0.149091
2133.4, 0.149140
2134.27, 0.149238
2135.15, 0.149335
2136.03, 0.149433
2136.91, 0.149531
2137.79, 0.149580
2138.68, 0.149678
2139.56, 0.149726
2140.44, 0.149775
2141.33, 0.149726
2142.21, 0.149726
2143.1, 0.149824
2143.99, 0.149873
2144.87, 0.150020
2145.76, 0.150215
2146.65, 0.150020
2147.54, 0.149971
2148.43, 0.150069
2149.32, 0.150166
2150.21, 0.150166
2151.1, 0.150215
2151.99, 0.150264
2152.89, 0.150215
2153.78, 0.150313
2154.68, 0.150509
2155.57, 0.150557
2156.47, 0.150460
2157.37, 0.150362
2158.27, 0.150411
2159.16, 0.150557
2160.06, 0.150655
2160.96, 0.150802
2161.86, 0.150802
2162.77, 0.150704
2163.67, 0.150753
2164.57, 0.150802
2165.48, 0.150753
2166.38, 0.150802
2167.29, 0.150851
2168.2, 0.150900
2169.1, 0.150900
2170.01, 0.150753
2170.92, 0.150753
2171.83, 0.150900
2172.74, 0.150900
2173.65, 0.150851
2174.56, 0.150753
2175.47, 0.150851
2176.39, 0.151046
2177.3, 0.151046
2178.22, 0.150851
2179.13, 0.150802
2180.05, 0.150851
2180.96, 0.150949
2181.88, 0.151046
2182.8, 0.151046
2183.72, 0.150997
2184.64, 0.150900
2185.56, 0.150949
2186.48, 0.150900
2187.41, 0.150851
2188.33, 0.150753
2189.25, 0.150704
2190.18, 0.150704
2191.1, 0.150753
2192.03, 0.150900
2192.96, 0.150997
2193.89, 0.150997
2194.82, 0.150851
2195.74, 0.150851
2196.68, 0.150802
2197.61, 0.150851
2198.54, 0.150949
2199.47, 0.150753
2200.4, 0.150655
2201.34, 0.150753
2202.28, 0.150851
2203.21, 0.150900
2204.15, 0.150900
2205.08, 0.150949
2206.02, 0.150997
2206.96, 0.150949
2207.9, 0.150900
2208.84, 0.150851
2209.78, 0.150949
2210.73, 0.151046
2211.67, 0.150949
2212.61, 0.151046
2213.56, 0.151144
2214.5, 0.151095
2215.45, 0.151095
2216.4, 0.151144
2217.35, 0.151095
2218.3, 0.151144
2219.24, 0.151242
2220.2, 0.151291
2221.15, 0.151291
2222.1, 0.151242
2223.05, 0.151242
2224.0, 0.151437
2224.96, 0.151486
2225.91, 0.151535
2226.87, 0.151535
2227.83, 0.151584
2228.79, 0.151584
2229.74, 0.151486
2230.7, 0.151584
2231.66, 0.151828
2232.63, 0.151828
2233.59, 0.151926
2234.55, 0.152073
2235.51, 0.152171
2236.48, 0.152122
2237.44, 0.152024
2238.41, 0.152171
2239.38, 0.152464
2240.34, 0.152464
2241.31, 0.152415
2242.28, 0.152415
2243.25, 0.152415
2244.22, 0.152513
2245.19, 0.152659
2246.17, 0.152659
2247.14, 0.152659
2248.12, 0.152708
2249.09, 0.152806
2250.07, 0.152953
2251.04, 0.153002
2252.02, 0.153050
2253.0, 0.153148
2253.98, 0.153295
2254.96, 0.153393
2255.94, 0.153490
2256.92, 0.153588
2257.91, 0.153588
2258.89, 0.153539
2259.88, 0.153588
2260.86, 0.153539
2261.85, 0.153442
2262.83, 0.153539
2263.82, 0.153735
2264.81, 0.153784
2265.8, 0.153784
2266.79, 0.153784
2267.78, 0.153881
2268.78, 0.153979
2269.77, 0.154175
2270.76, 0.154126
2271.76, 0.154028
2272.75, 0.154126
2273.75, 0.154321
2274.75, 0.154517
2275.75, 0.154615
2276.75, 0.154419
2277.75, 0.154419
2278.75, 0.154566
2279.75, 0.154615
2280.75, 0.154517
