Database of Origin, USGS Spectral Database
Sample Description, See USGS database for additional info
Date Added,2016-08-10 05:22:52.827182

Data ID,USGS_pec02          
Sample ID, pectolite_nmnh94865.17456
Mineral Name, pectolite
Material Class,Inosilicate

Wavelength
1617.52, 0.262358
1618.03, 0.262897
1618.53, 0.262520
1619.04, 0.262681
1619.54, 0.262197
1620.05, 0.262520
1620.55, 0.262574
1621.06, 0.263112
1621.57, 0.263112
1622.08, 0.262897
1622.58, 0.262735
1623.09, 0.263058
1623.6, 0.263058
1624.11, 0.263004
1624.62, 0.262735
1625.13, 0.262897
1625.64, 0.262789
1626.15, 0.262843
1626.66, 0.262628
1627.17, 0.262681
1627.68, 0.262843
1628.19, 0.263327
1628.7, 0.263327
1629.21, 0.263435
1629.72, 0.263381
1630.24, 0.263381
1630.75, 0.263220
1631.26, 0.263435
1631.78, 0.263166
1632.29, 0.263112
1632.8, 0.262951
1633.32, 0.263489
1633.83, 0.263489
1634.35, 0.263435
1634.86, 0.263112
1635.38, 0.263489
1635.9, 0.263166
1636.41, 0.263220
1636.93, 0.263220
1637.45, 0.263543
1637.96, 0.263543
1638.48, 0.263274
1639.0, 0.262951
1639.52, 0.263004
1640.04, 0.262789
1640.56, 0.263166
1641.08, 0.263327
1641.59, 0.263489
1642.11, 0.263327
1642.63, 0.263489
1643.16, 0.263381
1643.68, 0.263650
1644.2, 0.263596
1644.72, 0.263973
1645.24, 0.263543
1645.76, 0.263489
1646.29, 0.263704
1646.81, 0.263973
1647.33, 0.263704
1647.86, 0.263758
1648.38, 0.263381
1648.9, 0.263973
1649.43, 0.264296
1649.95, 0.263973
1650.48, 0.263650
1651.0, 0.264081
1651.53, 0.264350
1652.06, 0.264404
1652.58, 0.263919
1653.11, 0.263919
1653.64, 0.263866
1654.17, 0.263866
1654.69, 0.263704
1655.22, 0.264027
1655.75, 0.264027
1656.28, 0.264027
1656.81, 0.263758
1657.34, 0.264081
1657.87, 0.264081
1658.4, 0.264296
1658.93, 0.264242
1659.46, 0.264350
1659.99, 0.264027
1660.52, 0.263973
1661.05, 0.264081
1661.59, 0.264404
1662.12, 0.263866
1662.65, 0.263650
1663.19, 0.263543
1663.72, 0.263650
1664.26, 0.263220
1664.79, 0.263596
1665.32, 0.263866
1665.86, 0.264296
1666.39, 0.263866
1666.93, 0.263543
1667.47, 0.263596
1668.0, 0.263919
1668.54, 0.263812
1669.08, 0.264027
1669.61, 0.263919
1670.15, 0.263973
1670.69, 0.263704
1671.23, 0.263973
1671.77, 0.264135
1672.31, 0.263973
1672.85, 0.263543
1673.39, 0.263812
1673.93, 0.263758
1674.47, 0.264081
1675.01, 0.264081
1675.55, 0.264189
1676.09, 0.264242
1676.64, 0.264512
1677.18, 0.264081
1677.72, 0.264135
1678.26, 0.264296
1678.81, 0.264512
1679.35, 0.264512
1679.89, 0.264296
1680.44, 0.263650
1680.98, 0.263866
1681.53, 0.264081
1682.07, 0.264135
1682.62, 0.264135
1683.17, 0.264512
1683.71, 0.264135
1684.26, 0.264081
1684.81, 0.263866
1685.36, 0.263973
1685.9, 0.263543
1686.45, 0.263704
1687.0, 0.263650
1687.55, 0.263758
1688.1, 0.263543
1688.65, 0.263596
1689.2, 0.263543
1689.75, 0.263596
1690.3, 0.263543
1690.85, 0.263650
1691.41, 0.263327
1691.96, 0.263704
1692.51, 0.263704
1693.06, 0.263812
1693.61, 0.263704
1694.17, 0.263435
1694.72, 0.263327
1695.28, 0.263381
1695.83, 0.263112
1696.39, 0.263112
1696.94, 0.263220
1697.5, 0.263489
1698.05, 0.263058
1698.61, 0.263058
1699.17, 0.263220
1699.72, 0.263274
1700.28, 0.263166
1700.84, 0.263166
1701.4, 0.263004
1701.95, 0.263058
1702.51, 0.262843
1703.07, 0.263220
1703.63, 0.262843
1704.19, 0.262681
1704.75, 0.262897
1705.31, 0.262897
1705.88, 0.262305
1706.44, 0.262574
1707.0, 0.262520
1707.56, 0.262358
1708.12, 0.262251
1708.69, 0.262412
1709.25, 0.262089
1709.81, 0.262143
1710.38, 0.261982
1710.94, 0.261874
1711.51, 0.261820
1712.07, 0.262089
1712.64, 0.262035
1713.2, 0.261874
1713.77, 0.261820
1714.34, 0.262035
1714.9, 0.261712
1715.47, 0.261766
1716.04, 0.261551
1716.61, 0.261389
1717.18, 0.261174
1717.74, 0.261282
1718.31, 0.261174
1718.88, 0.261282
1719.45, 0.261228
1720.02, 0.261551
1720.59, 0.261282
1721.17, 0.261067
1721.74, 0.260797
1722.31, 0.260797
1722.88, 0.260851
1723.45, 0.260905
1724.03, 0.260797
1724.6, 0.260797
1725.18, 0.260797
1725.75, 0.260690
1726.33, 0.260528
1726.9, 0.260797
1727.48, 0.260421
1728.05, 0.260474
1728.63, 0.260421
1729.2, 0.260528
1729.78, 0.260259
1730.36, 0.260098
1730.94, 0.260205
1731.51, 0.260582
1732.09, 0.260367
1732.67, 0.260205
1733.25, 0.259775
1733.83, 0.259936
1734.41, 0.259882
1734.99, 0.259936
1735.57, 0.259775
1736.15, 0.259936
1736.73, 0.259882
1737.32, 0.259990
1737.9, 0.259452
1738.48, 0.259613
1739.07, 0.259452
1739.65, 0.259667
1740.23, 0.259829
1740.82, 0.259613
1741.4, 0.259344
1741.99, 0.259559
1742.57, 0.259506
1743.16, 0.259613
1743.74, 0.259452
1744.33, 0.259452
1744.92, 0.259236
1745.51, 0.259290
1746.09, 0.259129
1746.68, 0.259183
1747.27, 0.259183
1747.86, 0.259290
1748.45, 0.259183
1749.04, 0.259183
1749.63, 0.258698
1750.22, 0.258698
1750.81, 0.258644
1751.4, 0.258590
1751.99, 0.258429
1752.59, 0.258752
1753.18, 0.258698
1753.77, 0.258590
1754.37, 0.258483
1754.96, 0.258483
1755.56, 0.258214
1756.15, 0.258214
1756.74, 0.258267
1757.34, 0.258537
1757.94, 0.258214
1758.53, 0.258321
1759.13, 0.258321
1759.73, 0.258267
1760.32, 0.257998
1760.92, 0.258052
1761.52, 0.257945
1762.12, 0.258106
1762.72, 0.257998
1763.32, 0.257837
1763.92, 0.257675
1764.52, 0.257837
1765.12, 0.257675
1765.72, 0.257783
1766.32, 0.257622
1766.92, 0.257514
1767.53, 0.257406
1768.13, 0.257568
1768.73, 0.257352
1769.34, 0.257406
1769.94, 0.257083
1770.55, 0.257245
1771.15, 0.257245
1771.76, 0.257245
1772.36, 0.257029
1772.97, 0.256814
1773.57, 0.256545
1774.18, 0.256760
1774.79, 0.256437
1775.4, 0.256437
1776.0, 0.256383
1776.61, 0.256383
1777.22, 0.256222
1777.83, 0.256437
1778.44, 0.256437
1779.05, 0.256545
1779.66, 0.256491
1780.27, 0.256491
1780.88, 0.256330
1781.5, 0.256168
1782.11, 0.255953
1782.72, 0.256276
1783.33, 0.256114
1783.95, 0.256168
1784.56, 0.255953
1785.18, 0.255953
1785.79, 0.255953
1786.41, 0.256007
1787.02, 0.255630
1787.64, 0.255468
1788.26, 0.255468
1788.87, 0.255630
1789.49, 0.255522
1790.11, 0.255415
1790.73, 0.255415
1791.35, 0.255630
1791.96, 0.255468
1792.58, 0.255415
1793.21, 0.255253
1793.83, 0.255145
1794.45, 0.254822
1795.07, 0.255092
1795.69, 0.255253
1796.31, 0.255199
1796.93, 0.255199
1797.56, 0.255145
1798.18, 0.254876
1798.8, 0.255038
1799.43, 0.254769
1800.05, 0.254876
1800.68, 0.254500
1801.3, 0.254446
1801.93, 0.254661
1802.56, 0.254553
1803.18, 0.254392
1803.81, 0.254553
1804.44, 0.254284
1805.07, 0.254069
1805.7, 0.254015
1806.33, 0.254069
1806.95, 0.254123
1807.58, 0.254123
1808.22, 0.253746
1808.85, 0.253961
1809.48, 0.253854
1810.11, 0.253854
1810.74, 0.253638
1811.38, 0.253638
1812.01, 0.253477
1812.64, 0.253423
1813.28, 0.253423
1813.91, 0.253907
1814.55, 0.253961
1815.18, 0.253423
1815.82, 0.253208
1816.45, 0.253531
1817.09, 0.253369
1817.73, 0.253315
1818.36, 0.253100
1819.0, 0.253154
1819.64, 0.252885
1820.28, 0.252831
1820.92, 0.252669
1821.56, 0.252777
1822.2, 0.252454
1822.84, 0.252885
1823.48, 0.252939
1824.12, 0.252885
1824.76, 0.252562
1825.41, 0.252346
1826.05, 0.252077
1826.69, 0.252239
1827.34, 0.252077
1827.98, 0.252131
1828.63, 0.252185
1829.27, 0.252346
1829.92, 0.252185
1830.56, 0.251970
1831.21, 0.251808
1831.86, 0.251808
1832.5, 0.251647
1833.15, 0.251808
1833.8, 0.251593
1834.45, 0.251431
1835.1, 0.251377
1835.75, 0.251485
1836.4, 0.251216
1837.05, 0.251216
1837.7, 0.251054
1838.35, 0.251431
1839.01, 0.251216
1839.66, 0.250839
1840.31, 0.250785
1840.96, 0.250893
1841.62, 0.250355
1842.27, 0.250355
1842.93, 0.250409
1843.58, 0.250462
1844.24, 0.250409
1844.9, 0.250839
1845.55, 0.250678
1846.21, 0.250139
1846.87, 0.249547
1847.53, 0.249655
1848.18, 0.249547
1848.84, 0.249870
1849.5, 0.249870
1850.16, 0.249870
1850.82, 0.249547
1851.48, 0.249440
1852.14, 0.249386
1852.81, 0.249278
1853.47, 0.248848
1854.13, 0.249009
1854.8, 0.249224
1855.46, 0.249278
1856.12, 0.248686
1856.79, 0.248417
1857.45, 0.248471
1858.12, 0.248686
1858.79, 0.248255
1859.45, 0.247879
1860.12, 0.247663
1860.79, 0.247771
1861.46, 0.247771
1862.12, 0.247932
1862.79, 0.247986
1863.46, 0.247771
1864.13, 0.247340
1864.8, 0.247287
1865.48, 0.247233
1866.15, 0.247233
1866.82, 0.246748
1867.49, 0.246425
1868.16, 0.246371
1868.84, 0.246587
1869.51, 0.246264
1870.19, 0.245941
1870.86, 0.245456
1871.54, 0.245833
1872.21, 0.245726
1872.89, 0.245403
1873.56, 0.245295
1874.24, 0.245403
1874.92, 0.245080
1875.6, 0.245026
1876.28, 0.244757
1876.96, 0.244703
1877.64, 0.244703
1878.32, 0.244703
1879.0, 0.244541
1879.68, 0.244487
1880.36, 0.244218
1881.04, 0.244111
1881.73, 0.243895
1882.41, 0.244003
1883.09, 0.243949
1883.78, 0.243680
1884.46, 0.243465
1885.15, 0.243572
1885.83, 0.243303
1886.52, 0.243142
1887.21, 0.242819
1887.89, 0.242657
1888.58, 0.242496
1889.27, 0.242442
1889.96, 0.242173
1890.65, 0.242119
1891.34, 0.241796
1892.03, 0.241742
1892.72, 0.241473
1893.41, 0.241581
1894.1, 0.241742
1894.79, 0.241850
1895.49, 0.241581
1896.18, 0.241527
1896.87, 0.241096
1897.57, 0.240881
1898.26, 0.240612
1898.96, 0.240504
1899.65, 0.240181
1900.35, 0.240074
1901.05, 0.240020
1901.74, 0.240074
1902.44, 0.239697
1903.14, 0.239535
1903.84, 0.239589
1904.54, 0.239535
1905.24, 0.238997
1905.94, 0.238889
1906.64, 0.238836
1907.34, 0.239158
1908.04, 0.239105
1908.75, 0.239051
1909.45, 0.238674
1910.15, 0.238620
1910.86, 0.238459
1911.56, 0.238351
1912.27, 0.238136
1912.97, 0.238028
1913.68, 0.237759
1914.39, 0.237920
1915.09, 0.237759
1915.8, 0.237705
1916.51, 0.237490
1917.22, 0.237436
1917.93, 0.237221
1918.64, 0.237221
1919.35, 0.236736
1920.06, 0.236467
1920.77, 0.236629
1921.48, 0.236952
1922.19, 0.236629
1922.91, 0.236359
1923.62, 0.236198
1924.33, 0.236306
1925.05, 0.236252
1925.76, 0.236252
1926.48, 0.235983
1927.19, 0.235875
1927.91, 0.235498
1928.63, 0.235283
1929.35, 0.235229
1930.07, 0.235337
1930.78, 0.235068
1931.5, 0.235014
1932.22, 0.234852
1932.94, 0.234798
1933.66, 0.234422
1934.39, 0.234368
1935.11, 0.234260
1935.83, 0.234260
1936.55, 0.234045
1937.28, 0.233991
1938.0, 0.233668
1938.73, 0.233614
1939.45, 0.233345
1940.18, 0.233453
1940.9, 0.233291
1941.63, 0.233453
1942.36, 0.233345
1943.09, 0.233184
1943.81, 0.232753
1944.54, 0.232591
1945.27, 0.232430
1946.0, 0.232591
1946.73, 0.232484
1947.47, 0.232322
1948.2, 0.232161
1948.93, 0.232107
1949.66, 0.231730
1950.4, 0.231892
1951.13, 0.231784
1951.86, 0.231676
1952.6, 0.231246
1953.34, 0.231138
1954.07, 0.231030
1954.81, 0.230923
1955.55, 0.230654
1956.29, 0.230707
1957.02, 0.230438
1957.76, 0.230331
1958.5, 0.230169
1959.24, 0.230062
1959.98, 0.229792
1960.72, 0.229685
1961.47, 0.229308
1962.21, 0.229254
1962.95, 0.229254
1963.7, 0.229469
1964.44, 0.229200
1965.18, 0.229039
1965.93, 0.228716
1966.67, 0.228447
1967.42, 0.228285
1968.17, 0.228339
1968.92, 0.228070
1969.66, 0.227962
1970.41, 0.227855
1971.16, 0.227855
1971.91, 0.227424
1972.66, 0.227209
1973.41, 0.227155
1974.16, 0.227370
1974.92, 0.227101
1975.67, 0.226993
1976.42, 0.226724
1977.18, 0.226724
1977.93, 0.226294
1978.69, 0.226347
1979.44, 0.226078
1980.2, 0.226078
1980.95, 0.225863
1981.71, 0.225863
1982.47, 0.225594
1983.23, 0.225486
1983.99, 0.225325
1984.74, 0.225271
1985.51, 0.225002
1986.27, 0.224948
1987.03, 0.224733
1987.79, 0.224733
1988.55, 0.224517
1989.32, 0.224410
1990.08, 0.224248
1990.84, 0.224194
1991.61, 0.223925
1992.37, 0.223925
1993.14, 0.223710
1993.9, 0.223764
1994.67, 0.223494
1995.44, 0.223279
1996.21, 0.222956
1996.98, 0.223064
1997.75, 0.223064
1998.52, 0.223064
1999.29, 0.222849
2000.06, 0.222741
2000.83, 0.222472
2001.6, 0.222472
2002.38, 0.222256
2003.15, 0.222149
2003.93, 0.221880
2004.7, 0.221772
2005.48, 0.221557
2006.25, 0.221557
2007.03, 0.221449
2007.81, 0.221395
2008.58, 0.221234
2009.36, 0.221395
2010.14, 0.221126
2010.92, 0.220857
2011.7, 0.220695
2012.48, 0.220857
2013.26, 0.220803
2014.05, 0.220695
2014.83, 0.220372
2015.61, 0.220372
2016.4, 0.220211
2017.18, 0.220103
2017.97, 0.219673
2018.75, 0.219565
2019.54, 0.219350
2020.32, 0.219188
2021.11, 0.218919
2021.9, 0.218973
2022.69, 0.218758
2023.48, 0.218865
2024.27, 0.218758
2025.06, 0.218650
2025.85, 0.218327
2026.64, 0.218327
2027.44, 0.218112
2028.23, 0.218004
2029.02, 0.217627
2029.82, 0.217627
2030.61, 0.217627
2031.41, 0.217520
2032.2, 0.217304
2033.0, 0.216981
2033.8, 0.216551
2034.6, 0.216712
2035.4, 0.216335
2036.2, 0.216282
2037.0, 0.216389
2037.8, 0.216551
2038.6, 0.216174
2039.4, 0.215905
2040.2, 0.215905
2041.01, 0.215959
2041.81, 0.215743
2042.61, 0.215582
2043.42, 0.215366
2044.22, 0.215313
2045.03, 0.214882
2045.84, 0.214828
2046.65, 0.214559
2047.46, 0.214505
2048.26, 0.214236
2049.07, 0.214075
2049.88, 0.213752
2050.69, 0.213752
2051.51, 0.213590
2052.32, 0.213482
2053.13, 0.213375
2053.94, 0.213321
2054.76, 0.212890
2055.57, 0.212783
2056.39, 0.212729
2057.2, 0.212514
2058.02, 0.212244
2058.84, 0.212029
2059.66, 0.211652
2060.48, 0.211598
2061.29, 0.211545
2062.11, 0.211437
2062.94, 0.211168
2063.76, 0.210845
2064.58, 0.210737
2065.4, 0.210845
2066.22, 0.210576
2067.05, 0.210522
2067.87, 0.210091
2068.7, 0.210145
2069.52, 0.209930
2070.35, 0.209768
2071.18, 0.209392
2072.0, 0.209122
2072.83, 0.208853
2073.66, 0.208692
2074.49, 0.208423
2075.32, 0.208207
2076.15, 0.208153
2076.98, 0.208100
2077.82, 0.207777
2078.65, 0.207508
2079.48, 0.207292
2080.32, 0.207400
2081.15, 0.207238
2081.99, 0.207023
2082.83, 0.206754
2083.66, 0.206754
2084.5, 0.206431
2085.34, 0.206108
2086.18, 0.205893
2087.02, 0.205731
2087.86, 0.205570
2088.7, 0.205462
2089.54, 0.205085
2090.39, 0.204978
2091.23, 0.204816
2092.07, 0.204601
2092.92, 0.204332
2093.76, 0.204224
2094.61, 0.203901
2095.45, 0.203793
2096.3, 0.203578
2097.15, 0.203578
2098.0, 0.203363
2098.85, 0.203255
2099.7, 0.202878
2100.55, 0.202824
2101.4, 0.202717
2102.25, 0.202663
2103.1, 0.202179
2103.96, 0.202071
2104.81, 0.201802
2105.67, 0.201802
2106.52, 0.201694
2107.38, 0.201640
2108.24, 0.201425
2109.09, 0.201210
2109.95, 0.200887
2110.81, 0.200671
2111.67, 0.200510
2112.53, 0.200295
2113.39, 0.199972
2114.25, 0.199972
2115.12, 0.199810
2115.98, 0.199649
2116.84, 0.199487
2117.71, 0.199272
2118.58, 0.198949
2119.44, 0.198949
2120.31, 0.198841
2121.18, 0.198787
2122.04, 0.198411
2122.91, 0.198411
2123.78, 0.198088
2124.65, 0.198088
2125.52, 0.197872
2126.4, 0.197603
2127.27, 0.197388
2128.14, 0.197388
2129.02, 0.197119
2129.89, 0.197226
2130.77, 0.197119
2131.64, 0.196742
2132.52, 0.196473
2133.4, 0.196634
2134.27, 0.196311
2135.15, 0.195934
2136.03, 0.195665
2136.91, 0.195558
2137.79, 0.195396
2138.68, 0.195396
2139.56, 0.195073
2140.44, 0.195127
2141.33, 0.194858
2142.21, 0.194535
2143.1, 0.194266
2143.99, 0.194266
2144.87, 0.194051
2145.76, 0.193997
2146.65, 0.193566
2147.54, 0.193512
2148.43, 0.193351
2149.32, 0.193297
2150.21, 0.192920
2151.1, 0.192812
2151.99, 0.192651
2152.89, 0.192489
2153.78, 0.192274
2154.68, 0.192274
2155.57, 0.191897
2156.47, 0.191628
2157.37, 0.191305
2158.27, 0.191144
2159.16, 0.191144
2160.06, 0.191198
2160.96, 0.190875
2161.86, 0.190605
2162.77, 0.190444
2163.67, 0.190498
2164.57, 0.190283
2165.48, 0.190175
2166.38, 0.189852
2167.29, 0.189690
2168.2, 0.189475
2169.1, 0.189475
2170.01, 0.189044
2170.92, 0.188937
2171.83, 0.188614
2172.74, 0.188560
2173.65, 0.188506
2174.56, 0.188506
2175.47, 0.188129
2176.39, 0.187968
2177.3, 0.187537
2178.22, 0.187591
2179.13, 0.187376
2180.05, 0.187160
2180.96, 0.186891
2181.88, 0.186891
2182.8, 0.186622
2183.72, 0.186515
2184.64, 0.186245
2185.56, 0.186192
2186.48, 0.185869
2187.41, 0.185815
2188.33, 0.185546
2189.25, 0.185438
2190.18, 0.185169
2191.1, 0.185115
2192.03, 0.184900
2192.96, 0.184684
2193.89, 0.184361
2194.82, 0.184361
2195.74, 0.184308
2196.68, 0.184146
2197.61, 0.183769
2198.54, 0.183715
2199.47, 0.183446
2200.4, 0.183393
2201.34, 0.183231
2202.28, 0.183123
2203.21, 0.182962
2204.15, 0.182854
2205.08, 0.182424
2206.02, 0.182316
2206.96, 0.182154
2207.9, 0.182101
2208.84, 0.181939
2209.78, 0.181831
2210.73, 0.181455
2211.67, 0.181293
2212.61, 0.180970
2213.56, 0.180970
2214.5, 0.180809
2215.45, 0.180647
2216.4, 0.180324
2217.35, 0.180324
2218.3, 0.180055
2219.24, 0.179894
2220.2, 0.179786
2221.15, 0.179625
2222.1, 0.179463
2223.05, 0.179409
2224.0, 0.179194
2224.96, 0.179032
2225.91, 0.178656
2226.87, 0.178602
2227.83, 0.178440
2228.79, 0.178440
2229.74, 0.178387
2230.7, 0.178279
2231.66, 0.177902
2232.63, 0.177794
2233.59, 0.177579
2234.55, 0.177525
2235.51, 0.177256
2236.48, 0.177148
2237.44, 0.176879
2238.41, 0.177041
2239.38, 0.176644
2240.34, 0.176512
2241.31, 0.176336
2242.28, 0.176248
2243.25, 0.176072
2244.22, 0.175940
2245.19, 0.175852
2246.17, 0.175808
2247.14, 0.175455
2248.12, 0.175235
2249.09, 0.174795
2250.07, 0.174707
2251.04, 0.174619
2252.02, 0.174531
2253.0, 0.174222
2253.98, 0.174090
2254.96, 0.173870
2255.94, 0.173870
2256.92, 0.173650
2257.91, 0.173341
2258.89, 0.172857
2259.88, 0.172593
2260.86, 0.172681
2261.85, 0.172725
2262.83, 0.172417
2263.82, 0.172329
2264.81, 0.172064
2265.8, 0.171976
2266.79, 0.171844
2267.78, 0.171800
2268.78, 0.171316
2269.77, 0.171183
2270.76, 0.171051
2271.76, 0.170963
2272.75, 0.170831
2273.75, 0.170875
2274.75, 0.170699
2275.75, 0.170347
2276.75, 0.170082
2277.75, 0.169950
2278.75, 0.169730
2279.75, 0.169730
2280.75, 0.169598
2281.76, 0.169598
2282.76, 0.169422
2283.77, 0.169158
2284.77, 0.168981
2285.78, 0.169026
2286.79, 0.168629
2287.8, 0.168189
2288.81, 0.167880
2289.82, 0.167748
2290.83, 0.167792
2291.84, 0.167748
2292.86, 0.167484
2293.87, 0.167396
2294.89, 0.167264
2295.91, 0.167220
2296.92, 0.167264
2297.94, 0.167220
2298.96, 0.167044
2299.98, 0.166515
2301.0, 0.166383
2302.02, 0.166471
2303.04, 0.166207
2304.07, 0.165855
2305.09, 0.165723
2306.12, 0.165767
2307.15, 0.165634
2308.17, 0.165546
2309.2, 0.165370
2310.23, 0.165150
2311.26, 0.164842
2312.29, 0.164577
2313.32, 0.164577
2314.35, 0.164666
2315.39, 0.164710
2316.42, 0.164622
2317.46, 0.164313
2318.5, 0.164269
2319.53, 0.164137
2320.57, 0.163873
2321.61, 0.163741
2322.65, 0.163697
2323.69, 0.163432
2324.73, 0.163124
2325.78, 0.163080
2326.82, 0.163036
2327.86, 0.162728
2328.91, 0.162772
2329.96, 0.162728
2331.01, 0.162375
2332.05, 0.162243
2333.1, 0.162464
2334.15, 0.162287
2335.21, 0.161935
2336.26, 0.161979
2337.31, 0.161847
2338.36, 0.161759
2339.42, 0.161803
2340.48, 0.161803
2341.53, 0.161671
2342.59, 0.161407
2343.65, 0.161010
2344.71, 0.160658
2345.77, 0.160746
2346.83, 0.160834
2347.9, 0.160702
2348.96, 0.160482
2350.02, 0.160526
2351.09, 0.160526
2352.16, 0.160394
2353.23, 0.160129
2354.29, 0.159997
2355.36, 0.159865
2356.43, 0.159953
2357.51, 0.159997
2358.58, 0.159821
2359.65, 0.159645
2360.73, 0.159557
2361.8, 0.159205
2362.88, 0.159072
2363.96, 0.159072
2365.03, 0.159028
2366.11, 0.158984
2367.19, 0.158852
2368.27, 0.158676
2369.36, 0.158676
2370.44, 0.158544
2371.53, 0.158456
2372.61, 0.158280
2373.7, 0.158236
2374.78, 0.158016
2375.87, 0.157795
2376.96, 0.157663
2378.05, 0.157751
2379.14, 0.157839
2380.24, 0.157707
2381.33, 0.157487
2382.42, 0.157443
2383.52, 0.157223
2384.61, 0.157091
2385.71, 0.157003
2386.81, 0.157047
2387.91, 0.157091
2389.01, 0.157047
2390.11, 0.156915
2391.22, 0.156959
2392.32, 0.156915
2393.42, 0.156694
2394.53, 0.156474
2395.64, 0.156518
2396.74, 0.156474
