Database of Origin, USGS Spectral Database
Sample Description, See USGS database for additional info
Date Added,2016-08-10 02:45:03.548615

Data ID,USGS_gal02          
Sample ID, galena_hs37.7899
Mineral Name, galena
Material Class,Sulfide

Wavelength
1488.84, 0.0987210
1489.27, 0.0987840
1489.7, 0.0989080
1490.13, 0.0989080
1490.56, 0.0987210
1490.98, 0.0986590
1491.41, 0.0988460
1491.84, 0.0989710
1492.27, 0.0990950
1492.7, 0.0990330
1493.13, 0.0989080
1493.56, 0.0989710
1493.99, 0.0990330
1494.42, 0.0989080
1494.85, 0.0988460
1495.29, 0.0987840
1495.72, 0.0987840
1496.15, 0.0989080
1496.58, 0.0988460
1497.01, 0.0989710
1497.44, 0.0990950
1497.88, 0.0992200
1498.31, 0.0991570
1498.74, 0.0989710
1499.18, 0.0989080
1499.61, 0.0990950
1500.04, 0.0992200
1500.48, 0.0991570
1500.91, 0.0991570
1501.35, 0.0989710
1501.78, 0.0989710
1502.22, 0.0989710
1502.65, 0.0989080
1503.09, 0.0990950
1503.53, 0.0991570
1503.96, 0.0992200
1504.4, 0.0992820
1504.83, 0.0994070
1505.27, 0.0994070
1505.71, 0.0992200
1506.15, 0.0991570
1506.58, 0.0992820
1507.02, 0.0993440
1507.46, 0.0992200
1507.9, 0.0990950
1508.34, 0.0991570
1508.78, 0.0992200
1509.21, 0.0993440
1509.66, 0.0992200
1510.09, 0.0991570
1510.53, 0.0991570
1510.97, 0.0992200
1511.42, 0.0992200
1511.86, 0.0992200
1512.3, 0.0992820
1512.74, 0.0992200
1513.18, 0.0991570
1513.62, 0.0992200
1514.06, 0.0992820
1514.51, 0.0992200
1514.95, 0.0992200
1515.39, 0.0991570
1515.83, 0.0992200
1516.28, 0.0992200
1516.72, 0.0993440
1517.16, 0.0992820
1517.61, 0.0990950
1518.05, 0.0992200
1518.5, 0.0993440
1518.94, 0.0992820
1519.39, 0.0992820
1519.83, 0.0993440
1520.28, 0.0992820
1520.73, 0.0991570
1521.17, 0.0990950
1521.62, 0.0991570
1522.07, 0.0992820
1522.51, 0.0992200
1522.96, 0.0991570
1523.41, 0.0991570
1523.85, 0.0992200
1524.3, 0.0991570
1524.75, 0.0991570
1525.2, 0.0990950
1525.65, 0.0990950
1526.1, 0.0990950
1526.55, 0.0990330
1527.0, 0.0990330
1527.45, 0.0991570
1527.9, 0.0991570
1528.35, 0.0989710
1528.8, 0.0990330
1529.25, 0.0990330
1529.7, 0.0990950
1530.15, 0.0991570
1530.6, 0.0991570
1531.05, 0.0989710
1531.51, 0.0988460
1531.96, 0.0989080
1532.41, 0.0990330
1532.87, 0.0989080
1533.32, 0.0989710
1533.77, 0.0989080
1534.23, 0.0988460
1534.68, 0.0987840
1535.14, 0.0988460
1535.59, 0.0989710
1536.05, 0.0989710
1536.5, 0.0989080
1536.96, 0.0990330
1537.41, 0.0991570
1537.87, 0.0990950
1538.32, 0.0990330
1538.78, 0.0989710
1539.24, 0.0988460
1539.7, 0.0988460
1540.15, 0.0989080
1540.61, 0.0988460
1541.07, 0.0988460
1541.53, 0.0988460
1541.98, 0.0990330
1542.44, 0.0990330
1542.9, 0.0989080
1543.36, 0.0989080
1543.82, 0.0989710
1544.28, 0.0989710
1544.74, 0.0990330
1545.2, 0.0990330
1545.66, 0.0989710
1546.12, 0.0990330
1546.59, 0.0989710
1547.05, 0.0990330
1547.51, 0.0989710
1547.97, 0.0989080
1548.43, 0.0989080
1548.9, 0.0989080
1549.36, 0.0990330
1549.82, 0.0990950
1550.29, 0.0990950
1550.75, 0.0990330
1551.21, 0.0990330
1551.68, 0.0990330
1552.14, 0.0990950
1552.61, 0.0991570
1553.07, 0.0992200
1553.54, 0.0990950
1554.0, 0.0989710
1554.47, 0.0990950
1554.93, 0.0992200
1555.4, 0.0992820
1555.87, 0.0992820
1556.34, 0.0993440
1556.8, 0.0993440
1557.27, 0.0992200
1557.74, 0.0991570
1558.21, 0.0991570
1558.68, 0.0992820
1559.14, 0.0994070
1559.61, 0.0994070
1560.08, 0.0994070
1560.55, 0.0994070
1561.02, 0.0994070
1561.49, 0.0995310
1561.96, 0.0995930
1562.43, 0.0995930
1562.9, 0.0995930
1563.38, 0.0994690
1563.85, 0.0995310
1564.32, 0.0995930
1564.79, 0.0995930
1565.26, 0.0995930
1565.74, 0.0997180
1566.21, 0.0997800
1566.68, 0.0997180
1567.16, 0.0997180
1567.63, 0.0997800
1568.1, 0.0998430
1568.58, 0.0997800
1569.05, 0.0998430
1569.53, 0.0999050
1570.0, 0.0999050
1570.48, 0.0999670
1570.96, 0.0999670
1571.43, 0.0999050
1571.91, 0.0999050
1572.39, 0.0998430
1572.86, 0.0997800
1573.34, 0.0997800
1573.82, 0.0998430
1574.3, 0.0999050
1574.77, 0.0997800
1575.25, 0.0997800
1575.73, 0.0998430
1576.21, 0.0999050
1576.69, 0.0999670
1577.17, 0.100029
1577.65, 0.100029
1578.13, 0.0998430
1578.61, 0.0999050
1579.09, 0.0999670
1579.57, 0.0999670
1580.05, 0.0999670
1580.54, 0.0999050
1581.02, 0.0999050
1581.5, 0.0998430
1581.98, 0.0998430
1582.47, 0.0999050
1582.95, 0.0999670
1583.43, 0.0999670
1583.92, 0.0999050
1584.4, 0.0999050
1584.88, 0.0999050
1585.37, 0.0999670
1585.85, 0.0999050
1586.34, 0.0998430
1586.82, 0.0999050
1587.31, 0.0999050
1587.8, 0.0997800
1588.28, 0.0997800
1588.77, 0.0997180
1589.26, 0.0997180
1589.74, 0.0997180
1590.23, 0.0998430
1590.72, 0.0998430
1591.21, 0.0999050
1591.7, 0.0998430
1592.19, 0.0997800
1592.67, 0.0997800
1593.16, 0.0997800
1593.65, 0.0997800
1594.14, 0.0997800
1594.63, 0.0999050
1595.12, 0.0998430
1595.61, 0.0997180
1596.11, 0.0997180
1596.6, 0.0996560
1597.09, 0.0996560
1597.58, 0.0996560
1598.08, 0.0997800
1598.57, 0.0998430
1599.06, 0.0998430
1599.55, 0.0997800
1600.05, 0.0997180
1600.54, 0.0997180
1601.04, 0.0997180
1601.53, 0.0997180
1602.03, 0.0997180
1602.52, 0.0995930
1603.02, 0.0995930
1603.51, 0.0997800
1604.01, 0.0999050
1604.5, 0.0997800
1605.0, 0.0995930
1605.5, 0.0995310
1606.0, 0.0997180
1606.49, 0.0997180
1606.99, 0.0997180
1607.49, 0.0997800
1607.99, 0.0997800
1608.49, 0.0998430
1608.99, 0.0997800
1609.49, 0.0998430
1609.99, 0.0998430
1610.49, 0.0998430
1610.99, 0.0997180
1611.49, 0.0997180
1611.99, 0.0998430
1612.49, 0.0998430
1612.99, 0.0999050
1613.49, 0.0999050
1614.0, 0.0999050
1614.5, 0.100029
1615.0, 0.0999670
1615.51, 0.0999050
1616.01, 0.0999670
1616.51, 0.0999670
1617.02, 0.0999050
1617.52, 0.0999670
1618.03, 0.100092
1618.53, 0.100092
1619.04, 0.100092
1619.54, 0.100154
1620.05, 0.100278
1620.55, 0.100403
1621.06, 0.100403
1621.57, 0.100403
1622.08, 0.100341
1622.58, 0.100341
1623.09, 0.100341
1623.6, 0.100341
1624.11, 0.100278
1624.62, 0.100278
1625.13, 0.100341
1625.64, 0.100465
1626.15, 0.100528
1626.66, 0.100528
1627.17, 0.100528
1627.68, 0.100590
1628.19, 0.100465
1628.7, 0.100528
1629.21, 0.100528
1629.72, 0.100528
1630.24, 0.100652
1630.75, 0.100777
1631.26, 0.100777
1631.78, 0.100777
1632.29, 0.100901
1632.8, 0.100839
1633.32, 0.100777
1633.83, 0.100839
1634.35, 0.100839
1634.86, 0.100839
1635.38, 0.100839
1635.9, 0.100901
1636.41, 0.100901
1636.93, 0.100901
1637.45, 0.101026
1637.96, 0.101026
1638.48, 0.100901
1639.0, 0.100839
1639.52, 0.100839
1640.04, 0.100839
1640.56, 0.100839
1641.08, 0.101026
1641.59, 0.101026
1642.11, 0.100901
1642.63, 0.100839
1643.16, 0.100901
1643.68, 0.100964
1644.2, 0.100839
1644.72, 0.100839
1645.24, 0.100964
1645.76, 0.101026
1646.29, 0.101026
1646.81, 0.101026
1647.33, 0.101150
1647.86, 0.101150
1648.38, 0.101088
1648.9, 0.101088
1649.43, 0.101026
1649.95, 0.101088
1650.48, 0.101026
1651.0, 0.101088
1651.53, 0.101026
1652.06, 0.101026
1652.58, 0.101026
1653.11, 0.100964
1653.64, 0.100901
1654.17, 0.100901
1654.69, 0.100964
1655.22, 0.100964
1655.75, 0.100839
1656.28, 0.100777
1656.81, 0.100839
1657.34, 0.100964
1657.87, 0.100964
1658.4, 0.100839
1658.93, 0.100839
1659.46, 0.100777
1659.99, 0.100714
1660.52, 0.100901
1661.05, 0.100901
1661.59, 0.100839
1662.12, 0.100901
1662.65, 0.100901
1663.19, 0.100777
1663.72, 0.100714
1664.26, 0.100839
1664.79, 0.100964
1665.32, 0.100839
1665.86, 0.100777
1666.39, 0.100714
1666.93, 0.100777
1667.47, 0.100839
1668.0, 0.100777
1668.54, 0.100777
1669.08, 0.100777
1669.61, 0.100777
1670.15, 0.100777
1670.69, 0.100652
1671.23, 0.100652
1671.77, 0.100714
1672.31, 0.100714
1672.85, 0.100652
1673.39, 0.100714
1673.93, 0.100714
1674.47, 0.100777
1675.01, 0.100839
1675.55, 0.100901
1676.09, 0.100964
1676.64, 0.100901
1677.18, 0.100839
1677.72, 0.100839
1678.26, 0.100901
1678.81, 0.100901
1679.35, 0.100901
1679.89, 0.100839
1680.44, 0.100964
1680.98, 0.101026
1681.53, 0.101088
1682.07, 0.101088
1682.62, 0.100964
1683.17, 0.100901
1683.71, 0.101026
1684.26, 0.101026
1684.81, 0.101026
1685.36, 0.100901
1685.9, 0.100901
1686.45, 0.101150
1687.0, 0.101213
1687.55, 0.101150
1688.1, 0.101150
1688.65, 0.101213
1689.2, 0.101213
1689.75, 0.101213
1690.3, 0.101150
1690.85, 0.101213
1691.41, 0.101337
1691.96, 0.101400
1692.51, 0.101337
1693.06, 0.101337
1693.61, 0.101400
1694.17, 0.101524
1694.72, 0.101462
1695.28, 0.101462
1695.83, 0.101462
1696.39, 0.101524
1696.94, 0.101462
1697.5, 0.101524
1698.05, 0.101586
1698.61, 0.101586
1699.17, 0.101649
1699.72, 0.101649
1700.28, 0.101711
1700.84, 0.101649
1701.4, 0.101586
1701.95, 0.101649
1702.51, 0.101836
1703.07, 0.101836
1703.63, 0.101836
1704.19, 0.101773
1704.75, 0.101836
1705.31, 0.101836
1705.88, 0.101898
1706.44, 0.101836
1707.0, 0.101836
1707.56, 0.101960
1708.12, 0.101960
1708.69, 0.101960
1709.25, 0.101898
1709.81, 0.101836
1710.38, 0.101836
1710.94, 0.101898
1711.51, 0.101836
1712.07, 0.101898
1712.64, 0.101960
1713.2, 0.102022
1713.77, 0.102147
1714.34, 0.101960
1714.9, 0.101836
1715.47, 0.101898
1716.04, 0.102022
1716.61, 0.102022
1717.18, 0.101960
1717.74, 0.101898
1718.31, 0.101898
1718.88, 0.101898
1719.45, 0.101898
1720.02, 0.101898
1720.59, 0.102022
1721.17, 0.101960
1721.74, 0.101960
1722.31, 0.101898
1722.88, 0.101898
1723.45, 0.101960
1724.03, 0.102022
1724.6, 0.102085
1725.18, 0.101960
1725.75, 0.101836
1726.33, 0.101898
1726.9, 0.102022
1727.48, 0.101898
1728.05, 0.101898
1728.63, 0.101960
1729.2, 0.101960
1729.78, 0.101836
1730.36, 0.101773
1730.94, 0.101836
1731.51, 0.101773
1732.09, 0.101773
1732.67, 0.101836
1733.25, 0.101836
1733.83, 0.101836
1734.41, 0.101836
1734.99, 0.101836
1735.57, 0.101773
1736.15, 0.101836
1736.73, 0.101773
1737.32, 0.101836
1737.9, 0.101836
1738.48, 0.101711
1739.07, 0.101836
1739.65, 0.101898
1740.23, 0.101773
1740.82, 0.101586
1741.4, 0.101711
1741.99, 0.101773
1742.57, 0.101649
1743.16, 0.101586
1743.74, 0.101649
1744.33, 0.101773
1744.92, 0.101773
1745.51, 0.101711
1746.09, 0.101773
1746.68, 0.101649
1747.27, 0.101586
1747.86, 0.101649
1748.45, 0.101711
1749.04, 0.101711
1749.63, 0.101649
1750.22, 0.101649
1750.81, 0.101649
1751.4, 0.101711
1751.99, 0.101836
1752.59, 0.101836
1753.18, 0.101711
1753.77, 0.101711
1754.37, 0.101711
1754.96, 0.101649
1755.56, 0.101773
1756.15, 0.101836
1756.74, 0.101773
1757.34, 0.101773
1757.94, 0.101773
1758.53, 0.101836
1759.13, 0.101898
1759.73, 0.101836
1760.32, 0.101898
1760.92, 0.101960
1761.52, 0.101898
1762.12, 0.101898
1762.72, 0.102022
1763.32, 0.102022
1763.92, 0.101960
1764.52, 0.102022
1765.12, 0.102085
1765.72, 0.102147
1766.32, 0.102147
1766.92, 0.102085
1767.53, 0.102085
1768.13, 0.102147
1768.73, 0.102209
1769.34, 0.102209
1769.94, 0.102209
1770.55, 0.102272
1771.15, 0.102334
1771.76, 0.102334
1772.36, 0.102334
1772.97, 0.102396
1773.57, 0.102396
1774.18, 0.102272
1774.79, 0.102396
1775.4, 0.102521
1776.0, 0.102583
1776.61, 0.102458
1777.22, 0.102396
1777.83, 0.102458
1778.44, 0.102458
1779.05, 0.102583
1779.66, 0.102583
1780.27, 0.102583
1780.88, 0.102708
1781.5, 0.102645
1782.11, 0.102521
1782.72, 0.102521
1783.33, 0.102521
1783.95, 0.102521
1784.56, 0.102583
1785.18, 0.102645
1785.79, 0.102708
1786.41, 0.102770
1787.02, 0.102645
1787.64, 0.102645
1788.26, 0.102708
1788.87, 0.102708
1789.49, 0.102708
1790.11, 0.102770
1790.73, 0.102832
1791.35, 0.102708
1791.96, 0.102645
1792.58, 0.102770
1793.21, 0.102770
1793.83, 0.102708
1794.45, 0.102645
1795.07, 0.102708
1795.69, 0.102832
1796.31, 0.102770
1796.93, 0.102645
1797.56, 0.102645
1798.18, 0.102645
1798.8, 0.102645
1799.43, 0.102770
1800.05, 0.102770
1800.68, 0.102708
1801.3, 0.102645
1801.93, 0.102708
1802.56, 0.102770
1803.18, 0.102708
1803.81, 0.102708
1804.44, 0.102645
1805.07, 0.102645
1805.7, 0.102708
1806.33, 0.102708
1806.95, 0.102645
1807.58, 0.102708
1808.22, 0.102708
1808.85, 0.102583
1809.48, 0.102645
1810.11, 0.102708
1810.74, 0.102708
1811.38, 0.102583
1812.01, 0.102521
1812.64, 0.102645
1813.28, 0.102583
1813.91, 0.102458
1814.55, 0.102521
1815.18, 0.102645
1815.82, 0.102645
1816.45, 0.102521
1817.09, 0.102458
1817.73, 0.102458
1818.36, 0.102521
1819.0, 0.102458
1819.64, 0.102645
1820.28, 0.102832
1820.92, 0.102770
1821.56, 0.102708
1822.2, 0.102583
1822.84, 0.102458
1823.48, 0.102458
1824.12, 0.102521
1824.76, 0.102458
1825.41, 0.102583
1826.05, 0.102832
1826.69, 0.102708
1827.34, 0.102396
1827.98, 0.102521
1828.63, 0.102645
1829.27, 0.102583
1829.92, 0.102645
1830.56, 0.102770
1831.21, 0.102770
1831.86, 0.102521
1832.5, 0.102521
1833.15, 0.102458
1833.8, 0.102521
1834.45, 0.102645
1835.1, 0.102708
1835.75, 0.102832
1836.4, 0.102832
1837.05, 0.102832
1837.7, 0.102894
1838.35, 0.102645
1839.01, 0.102708
1839.66, 0.102957
1840.31, 0.102770
1840.96, 0.102832
1841.62, 0.103144
1842.27, 0.103019
1842.93, 0.102708
1843.58, 0.102645
1844.24, 0.102708
1844.9, 0.102708
1845.55, 0.102645
1846.21, 0.103019
1846.87, 0.103393
1847.53, 0.103393
1848.18, 0.103268
1848.84, 0.103019
1849.5, 0.102894
1850.16, 0.102957
1850.82, 0.102957
1851.48, 0.102894
1852.14, 0.102957
1852.81, 0.103206
1853.47, 0.103455
1854.13, 0.103330
1854.8, 0.102894
1855.46, 0.102894
1856.12, 0.103268
1856.79, 0.103330
1857.45, 0.103081
1858.12, 0.103019
1858.79, 0.103268
1859.45, 0.103580
1860.12, 0.103580
1860.79, 0.103393
1861.46, 0.103268
1862.12, 0.103206
1862.79, 0.103081
1863.46, 0.103144
1864.13, 0.103144
1864.8, 0.103144
1865.48, 0.103081
1866.15, 0.103081
1866.82, 0.103330
1867.49, 0.103829
1868.16, 0.103642
1868.84, 0.103393
1869.51, 0.103393
1870.19, 0.103642
1870.86, 0.104016
1871.54, 0.103642
1872.21, 0.103642
1872.89, 0.103953
1873.56, 0.103704
1874.24, 0.103455
1874.92, 0.103393
1875.6, 0.103330
1876.28, 0.103393
1876.96, 0.103517
1877.64, 0.103268
1878.32, 0.103144
1879.0, 0.103081
1879.68, 0.103144
1880.36, 0.103206
1881.04, 0.103206
1881.73, 0.103206
1882.41, 0.103206
1883.09, 0.103330
1883.78, 0.103455
1884.46, 0.103268
1885.15, 0.103144
1885.83, 0.103268
1886.52, 0.103268
1887.21, 0.103206
1887.89, 0.103144
1888.58, 0.103144
1889.27, 0.103268
1889.96, 0.103517
1890.65, 0.103330
1891.34, 0.103206
1892.03, 0.103268
1892.72, 0.103268
1893.41, 0.103268
1894.1, 0.103268
1894.79, 0.103144
1895.49, 0.103206
1896.18, 0.103206
1896.87, 0.103144
1897.57, 0.103144
1898.26, 0.103206
1898.96, 0.103517
1899.65, 0.103642
1900.35, 0.103330
1901.05, 0.103019
1901.74, 0.103019
1902.44, 0.103393
1903.14, 0.103268
1903.84, 0.102957
1904.54, 0.103268
1905.24, 0.103580
1905.94, 0.103455
1906.64, 0.103330
1907.34, 0.102957
1908.04, 0.102894
1908.75, 0.102957
1909.45, 0.102957
1910.15, 0.103081
1910.86, 0.103144
1911.56, 0.103144
1912.27, 0.103081
1912.97, 0.103268
1913.68, 0.103330
1914.39, 0.103019
1915.09, 0.102832
1915.8, 0.102832
1916.51, 0.102957
1917.22, 0.103081
1917.93, 0.103019
1918.64, 0.102957
1919.35, 0.103206
1920.06, 0.103517
1920.77, 0.103455
1921.48, 0.103081
1922.19, 0.102957
1922.91, 0.102957
1923.62, 0.103081
1924.33, 0.103144
1925.05, 0.103019
1925.76, 0.102957
1926.48, 0.103019
1927.19, 0.103019
1927.91, 0.103206
1928.63, 0.103268
1929.35, 0.103019
1930.07, 0.102957
1930.78, 0.102957
1931.5, 0.103019
1932.22, 0.103081
1932.94, 0.103144
1933.66, 0.103268
1934.39, 0.103268
1935.11, 0.103206
1935.83, 0.103268
1936.55, 0.103206
1937.28, 0.103144
1938.0, 0.103206
1938.73, 0.103268
1939.45, 0.103268
1940.18, 0.103268
1940.9, 0.103393
1941.63, 0.103330
1942.36, 0.103330
1943.09, 0.103393
1943.81, 0.103393
1944.54, 0.103455
1945.27, 0.103517
1946.0, 0.103455
1946.73, 0.103455
1947.47, 0.103517
1948.2, 0.103517
1948.93, 0.103455
1949.66, 0.103517
1950.4, 0.103580
1951.13, 0.103517
1951.86, 0.103517
1952.6, 0.103642
1953.34, 0.103642
1954.07, 0.103517
1954.81, 0.103517
1955.55, 0.103580
1956.29, 0.103580
1957.02, 0.103517
1957.76, 0.103455
1958.5, 0.103455
1959.24, 0.103517
1959.98, 0.103642
1960.72, 0.103642
1961.47, 0.103580
1962.21, 0.103580
1962.95, 0.103580
1963.7, 0.103580
1964.44, 0.103704
1965.18, 0.103766
1965.93, 0.103704
1966.67, 0.103642
1967.42, 0.103642
1968.17, 0.103642
1968.92, 0.103642
1969.66, 0.103642
1970.41, 0.103704
1971.16, 0.103642
1971.91, 0.103580
1972.66, 0.103642
1973.41, 0.103704
1974.16, 0.103642
1974.92, 0.103580
1975.67, 0.103704
1976.42, 0.103704
1977.18, 0.103642
1977.93, 0.103704
1978.69, 0.103580
1979.44, 0.103517
1980.2, 0.103580
1980.95, 0.103642
1981.71, 0.103642
1982.47, 0.103642
1983.23, 0.103704
1983.99, 0.103704
1984.74, 0.103580
1985.51, 0.103517
1986.27, 0.103455
1987.03, 0.103580
1987.79, 0.103642
1988.55, 0.103580
1989.32, 0.103517
1990.08, 0.103517
1990.84, 0.103580
1991.61, 0.103642
1992.37, 0.103580
1993.14, 0.103517
1993.9, 0.103517
1994.67, 0.103517
1995.44, 0.103642
1996.21, 0.103704
1996.98, 0.103580
1997.75, 0.103455
1998.52, 0.103455
1999.29, 0.103393
2000.06, 0.103393
2000.83, 0.103393
2001.6, 0.103455
2002.38, 0.103455
2003.15, 0.103455
2003.93, 0.103517
2004.7, 0.103455
2005.48, 0.103393
2006.25, 0.103455
2007.03, 0.103393
2007.81, 0.103330
2008.58, 0.103455
2009.36, 0.103455
2010.14, 0.103517
2010.92, 0.103455
2011.7, 0.103455
2012.48, 0.103455
2013.26, 0.103517
2014.05, 0.103580
2014.83, 0.103580
2015.61, 0.103455
2016.4, 0.103393
2017.18, 0.103517
2017.97, 0.103580
2018.75, 0.103517
2019.54, 0.103517
2020.32, 0.103517
2021.11, 0.103517
2021.9, 0.103580
2022.69, 0.103455
2023.48, 0.103455
2024.27, 0.103580
2025.06, 0.103642
2025.85, 0.103580
2026.64, 0.103580
2027.44, 0.103642
2028.23, 0.103642
2029.02, 0.103580
2029.82, 0.103580
2030.61, 0.103642
2031.41, 0.103642
2032.2, 0.103642
2033.0, 0.103704
2033.8, 0.103766
2034.6, 0.103829
2035.4, 0.103766
2036.2, 0.103704
2037.0, 0.103704
2037.8, 0.103766
2038.6, 0.103766
2039.4, 0.103704
2040.2, 0.103766
2041.01, 0.103704
2041.81, 0.103766
2042.61, 0.103891
2043.42, 0.103953
2044.22, 0.103953
2045.03, 0.103953
2045.84, 0.103891
2046.65, 0.103891
2047.46, 0.103891
2048.26, 0.103953
2049.07, 0.103953
2049.88, 0.103829
2050.69, 0.103891
2051.51, 0.103953
2052.32, 0.103953
2053.13, 0.104016
2053.94, 0.104078
2054.76, 0.104078
2055.57, 0.104016
2056.39, 0.104016
2057.2, 0.104078
2058.02, 0.104016
2058.84, 0.103953
2059.66, 0.103953
2060.48, 0.103891
2061.29, 0.103891
2062.11, 0.104016
2062.94, 0.104078
2063.76, 0.104078
2064.58, 0.103953
2065.4, 0.104016
2066.22, 0.104078
2067.05, 0.104078
2067.87, 0.104078
2068.7, 0.104078
2069.52, 0.104016
2070.35, 0.103953
2071.18, 0.103953
2072.0, 0.103953
2072.83, 0.103953
2073.66, 0.104016
2074.49, 0.104078
2075.32, 0.104078
2076.15, 0.104016
2076.98, 0.103953
2077.82, 0.104016
2078.65, 0.104078
2079.48, 0.104016
2080.32, 0.104016
2081.15, 0.104140
2081.99, 0.104140
2082.83, 0.104078
2083.66, 0.104078
2084.5, 0.104078
2085.34, 0.104016
2086.18, 0.104016
2087.02, 0.104078
2087.86, 0.104016
2088.7, 0.104016
2089.54, 0.104078
2090.39, 0.104140
2091.23, 0.104078
2092.07, 0.104140
2092.92, 0.104078
2093.76, 0.103953
2094.61, 0.103891
2095.45, 0.104016
2096.3, 0.103953
2097.15, 0.103891
2098.0, 0.103891
2098.85, 0.103891
2099.7, 0.103829
2100.55, 0.103829
2101.4, 0.103953
2102.25, 0.104016
2103.1, 0.104016
2103.96, 0.104078
2104.81, 0.104016
2105.67, 0.103953
2106.52, 0.103891
2107.38, 0.103953
2108.24, 0.104016
2109.09, 0.104016
2109.95, 0.103953
2110.81, 0.103953
2111.67, 0.103953
2112.53, 0.103891
2113.39, 0.103891
