Database of Origin, USGS Spectral Database
Sample Description, See USGS database for additional info
Date Added,2016-08-10 05:11:10.039164

Data ID,USGS_mon08          
Sample ID, montmorillonite_cm26.14396
Mineral Name, montmorillonite
Material Class,Phyllosilicate

Wavelength
1379.5, 0.637650
1379.87, 0.635922
1380.23, 0.633619
1380.6, 0.631891
1380.97, 0.631995
1381.34, 0.631053
1381.7, 0.629430
1382.07, 0.628226
1382.44, 0.626812
1382.81, 0.626393
1383.18, 0.625870
1383.55, 0.624352
1383.92, 0.623304
1384.29, 0.622257
1384.66, 0.620372
1385.03, 0.619116
1385.4, 0.618278
1385.77, 0.617231
1386.14, 0.616184
1386.51, 0.614666
1386.88, 0.613775
1387.25, 0.612309
1387.62, 0.610372
1387.99, 0.608749
1388.36, 0.607702
1388.74, 0.606707
1389.11, 0.605451
1389.48, 0.603461
1389.85, 0.601943
1390.23, 0.600267
1390.6, 0.599063
1390.97, 0.597493
1391.35, 0.595922
1391.72, 0.593671
1392.09, 0.591472
1392.47, 0.590058
1392.84, 0.589116
1393.21, 0.587388
1393.59, 0.585503
1393.96, 0.583356
1394.34, 0.581733
1394.71, 0.579430
1395.09, 0.577597
1395.46, 0.575608
1395.84, 0.573775
1396.22, 0.571838
1396.59, 0.570634
1396.97, 0.569168
1397.35, 0.567335
1397.72, 0.565189
1398.1, 0.563566
1398.48, 0.561943
1398.85, 0.560110
1399.23, 0.557702
1399.61, 0.555921
1399.99, 0.554351
1400.37, 0.551890
1400.74, 0.549953
1401.12, 0.548539
1401.5, 0.546864
1401.88, 0.545607
1402.26, 0.544298
1402.64, 0.542623
1403.02, 0.540843
1403.4, 0.539586
1403.78, 0.537754
1404.16, 0.536340
1404.54, 0.534403
1404.92, 0.533251
1405.3, 0.532413
1405.68, 0.531105
1406.06, 0.529796
1406.44, 0.528801
1406.83, 0.526968
1407.21, 0.526026
1407.59, 0.525241
1407.97, 0.524141
1408.35, 0.522727
1408.74, 0.521576
1409.12, 0.520633
1409.5, 0.519953
1409.89, 0.519795
1410.27, 0.518958
1410.65, 0.518015
1411.04, 0.517701
1411.42, 0.517649
1411.81, 0.517125
1412.19, 0.516654
1412.58, 0.516549
1412.96, 0.516235
1413.35, 0.515869
1413.73, 0.515293
1414.12, 0.515345
1414.5, 0.515974
1414.89, 0.516183
1415.28, 0.516183
1415.66, 0.516811
1416.05, 0.517387
1416.44, 0.518120
1416.82, 0.518330
1417.21, 0.519115
1417.6, 0.519743
1417.98, 0.520424
1418.37, 0.520895
1418.76, 0.522204
1419.15, 0.523356
1419.54, 0.523879
1419.93, 0.524769
1420.32, 0.525607
1420.71, 0.526654
1421.09, 0.527754
1421.48, 0.528958
1421.88, 0.530110
1422.27, 0.531262
1422.66, 0.532413
1423.05, 0.533356
1423.44, 0.534455
1423.83, 0.535817
1424.22, 0.537125
1424.61, 0.537806
1425.0, 0.538539
1425.39, 0.539534
1425.78, 0.540948
1426.18, 0.541890
1426.57, 0.542728
1426.96, 0.543565
1427.36, 0.544770
1427.75, 0.546026
1428.14, 0.547178
1428.54, 0.548277
1428.93, 0.549272
1429.32, 0.549743
1429.72, 0.550529
1430.11, 0.551367
1430.51, 0.552257
1430.9, 0.552937
1431.3, 0.553827
1431.69, 0.554979
1432.09, 0.555607
1432.48, 0.556183
1432.88, 0.557021
1433.28, 0.558120
1433.67, 0.558958
1434.07, 0.559325
1434.46, 0.560267
1434.86, 0.561262
1435.26, 0.561995
1435.66, 0.562466
1436.05, 0.562885
1436.45, 0.563618
1436.85, 0.564089
1437.25, 0.564299
1437.65, 0.565084
1438.05, 0.565503
1438.44, 0.566131
1438.84, 0.567021
1439.24, 0.567388
1439.64, 0.567283
1440.04, 0.567388
1440.44, 0.567911
1440.84, 0.568487
1441.24, 0.568592
1441.65, 0.569325
1442.05, 0.570162
1442.45, 0.570529
1442.85, 0.570372
1443.25, 0.570477
1443.65, 0.570529
1444.05, 0.570791
1444.46, 0.570948
1444.86, 0.571367
1445.26, 0.571628
1445.67, 0.572100
1446.07, 0.571838
1446.47, 0.571628
1446.88, 0.571314
1447.28, 0.571681
1447.68, 0.572047
1448.09, 0.572047
1448.49, 0.571890
1448.9, 0.572309
1449.3, 0.572361
1449.71, 0.572361
1450.11, 0.572361
1450.52, 0.572257
1450.93, 0.572152
1451.33, 0.572257
1451.74, 0.572152
1452.14, 0.572414
1452.55, 0.572257
1452.96, 0.572204
1453.36, 0.571838
1453.77, 0.571576
1454.18, 0.571419
1454.59, 0.571471
1455.0, 0.571524
1455.41, 0.571367
1455.81, 0.571105
1456.22, 0.571105
1456.63, 0.571210
1457.04, 0.570895
1457.45, 0.570372
1457.86, 0.570424
1458.27, 0.570058
1458.68, 0.569691
1459.09, 0.569796
1459.5, 0.569587
1459.91, 0.569168
1460.32, 0.568854
1460.74, 0.568749
1461.15, 0.568906
1461.56, 0.568644
1461.97, 0.568382
1462.39, 0.568539
1462.8, 0.568644
1463.21, 0.568068
1463.62, 0.568225
1464.04, 0.568592
1464.45, 0.568330
1464.86, 0.568121
1465.28, 0.568592
1465.69, 0.568539
1466.11, 0.568278
1466.52, 0.568068
1466.94, 0.568539
1467.35, 0.568958
1467.77, 0.569168
1468.18, 0.569115
1468.6, 0.569220
1469.02, 0.569377
1469.43, 0.569534
1469.85, 0.569429
1470.27, 0.569848
1470.68, 0.570110
1471.1, 0.570477
1471.52, 0.570686
1471.94, 0.570738
1472.35, 0.570686
1472.77, 0.570948
1473.19, 0.571262
1473.61, 0.571786
1474.03, 0.571786
1474.45, 0.572257
1474.87, 0.572361
1475.29, 0.572885
1475.71, 0.572990
1476.13, 0.572623
1476.55, 0.572728
1476.97, 0.573252
1477.39, 0.573356
1477.81, 0.573723
1478.23, 0.573827
1478.65, 0.574194
1479.07, 0.574560
1479.5, 0.574508
1479.92, 0.574508
1480.34, 0.574665
1480.76, 0.574718
1481.19, 0.575032
1481.61, 0.575136
1482.03, 0.575765
1482.46, 0.575817
1482.88, 0.575660
1483.31, 0.575817
1483.73, 0.576079
1484.16, 0.576341
1484.58, 0.576183
1485.01, 0.575974
1485.43, 0.576288
1485.86, 0.576812
1486.28, 0.576916
1486.71, 0.576969
1487.14, 0.577021
1487.56, 0.576969
1487.99, 0.577074
1488.42, 0.577388
1488.84, 0.577440
1489.27, 0.577440
1489.7, 0.577440
1490.13, 0.577597
1490.56, 0.578068
1490.98, 0.578382
1491.41, 0.578435
1491.84, 0.578382
1492.27, 0.578592
1492.7, 0.578592
1493.13, 0.578697
1493.56, 0.578801
1493.99, 0.579011
1494.42, 0.579220
1494.85, 0.579011
1495.29, 0.579115
1495.72, 0.579273
1496.15, 0.579325
1496.58, 0.579587
1497.01, 0.579744
1497.44, 0.579796
1497.88, 0.580006
1498.31, 0.580215
1498.74, 0.580320
1499.18, 0.580477
1499.61, 0.580529
1500.04, 0.580686
1500.48, 0.580738
1500.91, 0.580738
1501.35, 0.580791
1501.78, 0.581000
1502.22, 0.581157
1502.65, 0.581262
1503.09, 0.581419
1503.53, 0.581576
1503.96, 0.581681
1504.4, 0.581995
1504.83, 0.581838
1505.27, 0.581681
1505.71, 0.581733
1506.15, 0.582047
1506.58, 0.582204
1507.02, 0.582466
1507.46, 0.582676
1507.9, 0.582780
1508.34, 0.582414
1508.78, 0.582519
1509.21, 0.582571
1509.66, 0.582885
1510.09, 0.582937
1510.53, 0.583304
1510.97, 0.583409
1511.42, 0.583409
1511.86, 0.583461
1512.3, 0.583618
1512.74, 0.584037
1513.18, 0.584142
1513.62, 0.583880
1514.06, 0.583775
1514.51, 0.583775
1514.95, 0.584299
1515.39, 0.584299
1515.83, 0.584037
1516.28, 0.584037
1516.72, 0.584299
1517.16, 0.584299
1517.61, 0.584613
1518.05, 0.584770
1518.5, 0.584927
1518.94, 0.584875
1519.39, 0.585241
1519.83, 0.585136
1520.28, 0.585241
1520.73, 0.585346
1521.17, 0.585398
1521.62, 0.585451
1522.07, 0.585451
1522.51, 0.585555
1522.96, 0.585765
1523.41, 0.585922
1523.85, 0.585869
1524.3, 0.585451
1524.75, 0.585503
1525.2, 0.585451
1525.65, 0.585608
1526.1, 0.585922
1526.55, 0.585869
1527.0, 0.585974
1527.45, 0.586288
1527.9, 0.586655
1528.35, 0.586707
1528.8, 0.586707
1529.25, 0.586707
1529.7, 0.586707
1530.15, 0.586812
1530.6, 0.587335
1531.05, 0.587492
1531.51, 0.587283
1531.96, 0.587283
1532.41, 0.587440
1532.87, 0.587964
1533.32, 0.587807
1533.77, 0.587754
1534.23, 0.587754
1534.68, 0.588225
1535.14, 0.588278
1535.59, 0.588278
1536.05, 0.588278
1536.5, 0.588592
1536.96, 0.588801
1537.41, 0.589011
1537.87, 0.589011
1538.32, 0.589168
1538.78, 0.589273
1539.24, 0.589639
1539.7, 0.589849
1540.15, 0.589953
1540.61, 0.590163
1541.07, 0.590320
1541.53, 0.590372
1541.98, 0.590267
1542.44, 0.590529
1542.9, 0.590634
1543.36, 0.590582
1543.82, 0.591000
1544.28, 0.591157
1544.74, 0.591105
1545.2, 0.591105
1545.66, 0.591367
1546.12, 0.591524
1546.59, 0.591838
1547.05, 0.592205
1547.51, 0.592257
1547.97, 0.592100
1548.43, 0.592309
1548.9, 0.592519
1549.36, 0.592780
1549.82, 0.592885
1550.29, 0.593356
1550.75, 0.593566
1551.21, 0.593775
1551.68, 0.593775
1552.14, 0.593671
1552.61, 0.593828
1553.07, 0.594142
1553.54, 0.594194
1554.0, 0.594247
1554.47, 0.594247
1554.93, 0.594613
1555.4, 0.594927
1555.87, 0.595032
1556.34, 0.595346
1556.8, 0.595555
1557.27, 0.595660
1557.74, 0.595765
1558.21, 0.595817
1558.68, 0.595922
1559.14, 0.595922
1559.61, 0.596184
1560.08, 0.596393
1560.55, 0.596550
1561.02, 0.596288
1561.49, 0.596445
1561.96, 0.596707
1562.43, 0.596969
1562.9, 0.597178
1563.38, 0.597493
1563.85, 0.597597
1564.32, 0.597650
1564.79, 0.597597
1565.26, 0.597807
1565.74, 0.597964
1566.21, 0.598226
1566.68, 0.598069
1567.16, 0.598330
1567.63, 0.598592
1568.1, 0.598540
1568.58, 0.598278
1569.05, 0.598592
1569.53, 0.598749
1570.0, 0.598854
1570.48, 0.599168
1570.96, 0.599377
1571.43, 0.599482
1571.91, 0.599849
1572.39, 0.599953
1572.86, 0.600006
1573.34, 0.600110
1573.82, 0.600425
1574.3, 0.600477
1574.77, 0.600477
1575.25, 0.600634
1575.73, 0.600791
1576.21, 0.600843
1576.69, 0.600896
1577.17, 0.601158
1577.65, 0.601262
1578.13, 0.601105
1578.61, 0.601262
1579.09, 0.601472
1579.57, 0.601367
1580.05, 0.601158
1580.54, 0.601472
1581.02, 0.601576
1581.5, 0.601681
1581.98, 0.601995
1582.47, 0.602257
1582.95, 0.602362
1583.43, 0.602257
1583.92, 0.602414
1584.4, 0.602519
1584.88, 0.602414
1585.37, 0.602571
1585.85, 0.602624
1586.34, 0.602833
1586.82, 0.603042
1587.31, 0.603304
1587.8, 0.603252
1588.28, 0.603252
1588.77, 0.603199
1589.26, 0.603461
1589.74, 0.603461
1590.23, 0.603671
1590.72, 0.603671
1591.21, 0.603775
1591.7, 0.603932
1592.19, 0.604142
1592.67, 0.604351
1593.16, 0.604508
1593.65, 0.604665
1594.14, 0.604823
1594.63, 0.604613
1595.12, 0.604718
1595.61, 0.605032
1596.11, 0.605398
1596.6, 0.605555
1597.09, 0.605660
1597.58, 0.605713
1598.08, 0.605765
1598.57, 0.605922
1599.06, 0.606393
1599.55, 0.606341
1600.05, 0.606288
1600.54, 0.606393
1601.04, 0.606812
1601.53, 0.606969
1602.03, 0.607179
1602.52, 0.607179
1603.02, 0.607179
1603.51, 0.607493
1604.01, 0.607859
1604.5, 0.608016
1605.0, 0.608173
1605.5, 0.608278
1606.0, 0.608435
1606.49, 0.608592
1606.99, 0.608592
1607.49, 0.608749
1607.99, 0.609063
1608.49, 0.609325
1608.99, 0.609587
1609.49, 0.609430
1609.99, 0.609639
1610.49, 0.609744
1610.99, 0.609901
1611.49, 0.610006
1611.99, 0.610268
1612.49, 0.610268
1612.99, 0.610477
1613.49, 0.610582
1614.0, 0.610739
1614.5, 0.610791
1615.0, 0.610843
1615.51, 0.611158
1616.01, 0.611315
1616.51, 0.611472
1617.02, 0.611838
1617.52, 0.611786
1618.03, 0.611733
1618.53, 0.611733
1619.04, 0.612414
1619.54, 0.612519
1620.05, 0.612467
1620.55, 0.612467
1621.06, 0.612833
1621.57, 0.613095
1622.08, 0.613200
1622.58, 0.613461
1623.09, 0.613880
1623.6, 0.613828
1624.11, 0.613828
1624.62, 0.614142
1625.13, 0.614404
1625.64, 0.614351
1626.15, 0.614299
1626.66, 0.614247
1627.17, 0.614404
1627.68, 0.614561
1628.19, 0.614980
1628.7, 0.614980
1629.21, 0.615032
1629.72, 0.615032
1630.24, 0.615189
1630.75, 0.615660
1631.26, 0.615817
1631.78, 0.615713
1632.29, 0.615608
1632.8, 0.615556
1633.32, 0.615660
1633.83, 0.616027
1634.35, 0.616131
1634.86, 0.615922
1635.38, 0.616341
1635.9, 0.616603
1636.41, 0.616917
1636.93, 0.617179
1637.45, 0.617336
1637.96, 0.617074
1638.48, 0.617074
1639.0, 0.617231
1639.52, 0.617440
1640.04, 0.617283
1640.56, 0.617440
1641.08, 0.617859
1641.59, 0.617912
1642.11, 0.617650
1642.63, 0.617859
1643.16, 0.618121
1643.68, 0.618069
1644.2, 0.618016
1644.72, 0.617859
1645.24, 0.618016
1645.76, 0.618278
1646.29, 0.618330
1646.81, 0.618488
1647.33, 0.618697
1647.86, 0.618802
1648.38, 0.618592
1648.9, 0.618697
1649.43, 0.618802
1649.95, 0.618906
1650.48, 0.618854
1651.0, 0.618854
1651.53, 0.619011
1652.06, 0.619221
1652.58, 0.619221
1653.11, 0.619325
1653.64, 0.619273
1654.17, 0.619378
1654.69, 0.619325
1655.22, 0.619430
1655.75, 0.619639
1656.28, 0.619849
1656.81, 0.619849
1657.34, 0.619954
1657.87, 0.619901
1658.4, 0.620058
1658.93, 0.620111
1659.46, 0.620320
1659.99, 0.620320
1660.52, 0.620634
1661.05, 0.620634
1661.59, 0.620372
1662.12, 0.620425
1662.65, 0.620634
1663.19, 0.620686
1663.72, 0.620791
1664.26, 0.621001
1664.79, 0.621158
1665.32, 0.621158
1665.86, 0.621420
1666.39, 0.621629
1666.93, 0.621786
1667.47, 0.621577
1668.0, 0.621577
1668.54, 0.621943
1669.08, 0.622100
1669.61, 0.622310
1670.15, 0.622467
1670.69, 0.622467
1671.23, 0.622676
1671.77, 0.622781
1672.31, 0.623043
1672.85, 0.623147
1673.39, 0.623095
1673.93, 0.623043
1674.47, 0.623095
1675.01, 0.623200
1675.55, 0.623514
1676.09, 0.623671
1676.64, 0.623671
1677.18, 0.623461
1677.72, 0.623409
1678.26, 0.623514
1678.81, 0.623880
1679.35, 0.624090
1679.89, 0.624299
1680.44, 0.624352
1680.98, 0.624299
1681.53, 0.624247
1682.07, 0.624561
1682.62, 0.624509
1683.17, 0.624456
1683.71, 0.624561
1684.26, 0.624613
1684.81, 0.624875
1685.36, 0.625242
1685.9, 0.625346
1686.45, 0.625294
1687.0, 0.625399
1687.55, 0.625608
1688.1, 0.625817
1688.65, 0.625817
1689.2, 0.625870
1689.75, 0.626079
1690.3, 0.626341
1690.85, 0.626393
1691.41, 0.626289
1691.96, 0.626393
1692.51, 0.626550
1693.06, 0.626708
1693.61, 0.626550
1694.17, 0.626655
1694.72, 0.626760
1695.28, 0.626760
1695.83, 0.626655
1696.39, 0.626969
1696.94, 0.627022
1697.5, 0.626865
1698.05, 0.626917
1698.61, 0.627126
1699.17, 0.627074
1699.72, 0.627231
1700.28, 0.627074
1700.84, 0.627179
1701.4, 0.627336
1701.95, 0.627283
1702.51, 0.627179
1703.07, 0.627179
1703.63, 0.627179
1704.19, 0.627493
1704.75, 0.627283
1705.31, 0.627231
1705.88, 0.627493
1706.44, 0.627493
1707.0, 0.627598
1707.56, 0.627598
1708.12, 0.627493
1708.69, 0.627545
1709.25, 0.627493
1709.81, 0.627493
1710.38, 0.627545
1710.94, 0.627650
1711.51, 0.627545
1712.07, 0.627545
1712.64, 0.627702
1713.2, 0.627493
1713.77, 0.627388
1714.34, 0.627545
1714.9, 0.627702
1715.47, 0.627493
1716.04, 0.627179
1716.61, 0.627179
1717.18, 0.627441
1717.74, 0.627388
1718.31, 0.627179
1718.88, 0.627126
1719.45, 0.627126
1720.02, 0.627074
1720.59, 0.627074
1721.17, 0.627179
1721.74, 0.627179
1722.31, 0.627126
1722.88, 0.627022
1723.45, 0.627022
1724.03, 0.626655
1724.6, 0.626550
1725.18, 0.626760
1725.75, 0.626760
1726.33, 0.626917
1726.9, 0.627179
1727.48, 0.626969
1728.05, 0.626760
1728.63, 0.626603
1729.2, 0.626603
1729.78, 0.626708
1730.36, 0.626708
1730.94, 0.626708
1731.51, 0.626655
1732.09, 0.626393
1732.67, 0.626393
1733.25, 0.626498
1733.83, 0.626446
1734.41, 0.626289
1734.99, 0.626184
1735.57, 0.626289
1736.15, 0.626393
1736.73, 0.626341
1737.32, 0.626079
1737.9, 0.626132
1738.48, 0.626341
1739.07, 0.626393
1739.65, 0.626289
1740.23, 0.626079
1740.82, 0.626132
1741.4, 0.626341
1741.99, 0.626393
1742.57, 0.626236
1743.16, 0.626236
1743.74, 0.626393
1744.33, 0.626446
1744.92, 0.626498
1745.51, 0.626498
1746.09, 0.626498
1746.68, 0.626498
1747.27, 0.626289
1747.86, 0.626393
1748.45, 0.626393
1749.04, 0.626446
1749.63, 0.626498
1750.22, 0.626341
1750.81, 0.626446
1751.4, 0.626603
1751.99, 0.626550
1752.59, 0.626341
1753.18, 0.626236
1753.77, 0.626289
1754.37, 0.626184
1754.96, 0.626184
1755.56, 0.626184
1756.15, 0.626289
1756.74, 0.626184
1757.34, 0.626132
1757.94, 0.626132
1758.53, 0.626079
1759.13, 0.626027
1759.73, 0.625870
1760.32, 0.625765
1760.92, 0.625870
1761.52, 0.625975
1762.12, 0.625817
1762.72, 0.625975
1763.32, 0.626027
1763.92, 0.625922
1764.52, 0.625922
1765.12, 0.626027
1765.72, 0.625870
1766.32, 0.625817
1766.92, 0.625975
1767.53, 0.625922
1768.13, 0.625870
1768.73, 0.625870
1769.34, 0.625975
1769.94, 0.625922
1770.55, 0.625870
1771.15, 0.625817
1771.76, 0.625922
1772.36, 0.625765
1772.97, 0.625660
1773.57, 0.625660
1774.18, 0.625765
1774.79, 0.625922
1775.4, 0.625817
1776.0, 0.625713
1776.61, 0.625713
1777.22, 0.625556
1777.83, 0.625451
1778.44, 0.625346
1779.05, 0.625451
1779.66, 0.625294
1780.27, 0.625084
1780.88, 0.624927
1781.5, 0.624980
1782.11, 0.624980
1782.72, 0.624770
1783.33, 0.624718
1783.95, 0.624875
1784.56, 0.624666
1785.18, 0.624666
1785.79, 0.624561
1786.41, 0.624194
1787.02, 0.624142
1787.64, 0.624299
1788.26, 0.624194
1788.87, 0.624090
1789.49, 0.623828
1790.11, 0.623985
1790.73, 0.623828
1791.35, 0.623776
1791.96, 0.623671
1792.58, 0.623723
1793.21, 0.623461
1793.83, 0.623200
1794.45, 0.623147
1795.07, 0.623147
1795.69, 0.622990
1796.31, 0.622990
1796.93, 0.622728
1797.56, 0.622781
1798.18, 0.622990
1798.8, 0.622781
1799.43, 0.622519
1800.05, 0.622467
1800.68, 0.622624
1801.3, 0.622519
1801.93, 0.622310
1802.56, 0.622257
1803.18, 0.622152
1803.81, 0.622048
1804.44, 0.621838
1805.07, 0.621629
1805.7, 0.621420
1806.33, 0.621367
1806.95, 0.621472
1807.58, 0.621524
1808.22, 0.621262
1808.85, 0.621210
1809.48, 0.621105
1810.11, 0.620896
1810.74, 0.620739
1811.38, 0.620844
1812.01, 0.620844
1812.64, 0.620739
1813.28, 0.620791
1813.91, 0.620739
1814.55, 0.620686
1815.18, 0.620372
1815.82, 0.620058
1816.45, 0.620111
1817.09, 0.620268
1817.73, 0.620372
1818.36, 0.620320
1819.0, 0.620268
1819.64, 0.619796
1820.28, 0.619482
1820.92, 0.619587
1821.56, 0.619587
1822.2, 0.619744
1822.84, 0.619796
1823.48, 0.619954
1824.12, 0.619954
1824.76, 0.619692
1825.41, 0.619011
1826.05, 0.618488
1826.69, 0.619221
1827.34, 0.619587
1827.98, 0.619325
1828.63, 0.619168
1829.27, 0.618906
1829.92, 0.618802
1830.56, 0.618435
1831.21, 0.618592
1831.86, 0.618749
1832.5, 0.618435
1833.15, 0.618697
1833.8, 0.618592
1834.45, 0.617964
1835.1, 0.617650
1835.75, 0.617231
1836.4, 0.617179
1837.05, 0.617179
1837.7, 0.616969
1838.35, 0.617755
1839.01, 0.617493
1839.66, 0.616655
1840.31, 0.616864
1840.96, 0.616760
1841.62, 0.616027
1842.27, 0.616498
1842.93, 0.616969
1843.58, 0.616917
1844.24, 0.616917
1844.9, 0.616969
1845.55, 0.616655
1846.21, 0.615660
1846.87, 0.614718
1847.53, 0.614980
1848.18, 0.615189
1848.84, 0.615817
1849.5, 0.615974
1850.16, 0.615713
1850.82, 0.615556
1851.48, 0.615608
1852.14, 0.614927
1852.81, 0.614142
1853.47, 0.613409
1854.13, 0.613723
1854.8, 0.614194
1855.46, 0.613566
1856.12, 0.612519
1856.79, 0.612152
1857.45, 0.612571
1858.12, 0.612467
1858.79, 0.611210
1859.45, 0.609849
1860.12, 0.609849
1860.79, 0.610006
1861.46, 0.609796
1862.12, 0.609325
1862.79, 0.608592
1863.46, 0.607754
1864.13, 0.606812
1864.8, 0.606236
1865.48, 0.605660
1866.15, 0.604508
1866.82, 0.602833
1867.49, 0.601210
1868.16, 0.600843
1868.84, 0.600215
1869.51, 0.598749
1870.19, 0.596917
1870.86, 0.595137
1871.54, 0.594875
1872.21, 0.593199
1872.89, 0.591053
1873.56, 0.590163
1874.24, 0.589325
1874.92, 0.587650
1875.6, 0.585869
1876.28, 0.583723
1876.96, 0.581681
1877.64, 0.580424
1878.32, 0.578592
1879.0, 0.576183
1879.68, 0.573827
1880.36, 0.571314
1881.04, 0.568696
1881.73, 0.566131
1882.41, 0.563356
1883.09, 0.559953
1883.78, 0.556236
1884.46, 0.553251
1885.15, 0.550058
1885.83, 0.546602
1886.52, 0.542832
1887.21, 0.538958
1887.89, 0.534874
1888.58, 0.530633
1889.27, 0.526078
1889.96, 0.521262
1890.65, 0.517178
1891.34, 0.513094
1892.03, 0.508225
1892.72, 0.503670
1893.41, 0.499481
1894.1, 0.495397
1894.79, 0.491837
1895.49, 0.488120
1896.18, 0.484821
1896.87, 0.481575
1897.57, 0.478381
1898.26, 0.475502
1898.96, 0.472675
1899.65, 0.470685
1900.35, 0.469324
1901.05, 0.468015
1901.74, 0.466601
1902.44, 0.465397
1903.14, 0.465031
1903.84, 0.464926
1904.54, 0.464559
1905.24, 0.464664
1905.94, 0.465397
1906.64, 0.466340
1907.34, 0.468015
1908.04, 0.469324
1908.75, 0.470842
