Database of Origin, USGS Spectral Database
Sample Description, See USGS database for additional info
Date Added,2016-08-10 05:39:18.766390

Data ID,USGS_spe04          
Sample ID, spessartine_nmnh14143.20806
Mineral Name, spessartine
Material Class,Nesosilicate

Wavelength
1424.22, 0.241041
1424.61, 0.240692
1425.0, 0.240750
1425.39, 0.240750
1425.78, 0.240808
1426.18, 0.240983
1426.57, 0.241216
1426.96, 0.241624
1427.36, 0.241973
1427.75, 0.242206
1428.14, 0.242614
1428.54, 0.242788
1428.93, 0.242847
1429.32, 0.243080
1429.72, 0.243837
1430.11, 0.244477
1430.51, 0.244477
1430.9, 0.244710
1431.3, 0.245001
1431.69, 0.245001
1432.09, 0.245409
1432.48, 0.245700
1432.88, 0.246050
1433.28, 0.246399
1433.67, 0.246865
1434.07, 0.246923
1434.46, 0.247156
1434.86, 0.247564
1435.26, 0.247506
1435.66, 0.247622
1436.05, 0.247913
1436.45, 0.248263
1436.85, 0.248437
1437.25, 0.248496
1437.65, 0.248787
1438.05, 0.249253
1438.44, 0.249602
1438.84, 0.249253
1439.24, 0.249311
1439.64, 0.249719
1440.04, 0.249777
1440.44, 0.250010
1440.84, 0.250592
1441.24, 0.250767
1441.65, 0.250825
1442.05, 0.250767
1442.45, 0.250883
1442.85, 0.251291
1443.25, 0.251757
1443.65, 0.251815
1444.05, 0.251873
1444.46, 0.251990
1444.86, 0.252339
1445.26, 0.252223
1445.67, 0.252339
1446.07, 0.252572
1446.47, 0.252747
1446.88, 0.252747
1447.28, 0.252805
1447.68, 0.253096
1448.09, 0.253329
1448.49, 0.253388
1448.9, 0.253620
1449.3, 0.253737
1449.71, 0.254028
1450.11, 0.254436
1450.52, 0.254436
1450.93, 0.254494
1451.33, 0.255018
1451.74, 0.255076
1452.14, 0.255193
1452.55, 0.255076
1452.96, 0.254785
1453.36, 0.254785
1453.77, 0.255135
1454.18, 0.255193
1454.59, 0.255076
1455.0, 0.255193
1455.41, 0.255775
1455.81, 0.256008
1456.22, 0.256008
1456.63, 0.256416
1457.04, 0.256358
1457.45, 0.256008
1457.86, 0.256183
1458.27, 0.256649
1458.68, 0.256823
1459.09, 0.256707
1459.5, 0.256707
1459.91, 0.256707
1460.32, 0.257115
1460.74, 0.257289
1461.15, 0.257289
1461.56, 0.257289
1461.97, 0.257231
1462.39, 0.257406
1462.8, 0.257697
1463.21, 0.257639
1463.62, 0.257581
1464.04, 0.257464
1464.45, 0.257639
1464.86, 0.258046
1465.28, 0.258512
1465.69, 0.258687
1466.11, 0.258571
1466.52, 0.258454
1466.94, 0.258571
1467.35, 0.258745
1467.77, 0.258862
1468.18, 0.258629
1468.6, 0.258745
1469.02, 0.258862
1469.43, 0.258978
1469.85, 0.259328
1470.27, 0.259619
1470.68, 0.259502
1471.1, 0.259502
1471.52, 0.259561
1471.94, 0.259561
1472.35, 0.259269
1472.77, 0.259677
1473.19, 0.259968
1473.61, 0.260026
1474.03, 0.259852
1474.45, 0.260143
1474.87, 0.260376
1475.29, 0.260492
1475.71, 0.260376
1476.13, 0.260318
1476.55, 0.260376
1476.97, 0.260609
1477.39, 0.260434
1477.81, 0.260434
1478.23, 0.260609
1478.65, 0.260434
1479.07, 0.260492
1479.5, 0.260609
1479.92, 0.260900
1480.34, 0.261075
1480.76, 0.260900
1481.19, 0.261075
1481.61, 0.261482
1482.03, 0.262065
1482.46, 0.261715
1482.88, 0.261657
1483.31, 0.262065
1483.73, 0.262181
1484.16, 0.262181
1484.58, 0.262356
1485.01, 0.262298
1485.43, 0.262123
1485.86, 0.261890
1486.28, 0.262123
1486.71, 0.262298
1487.14, 0.262123
1487.56, 0.262065
1487.99, 0.262589
1488.42, 0.262880
1488.84, 0.262822
1489.27, 0.262589
1489.7, 0.262705
1490.13, 0.262997
1490.56, 0.263171
1490.98, 0.263404
1491.41, 0.263521
1491.84, 0.263579
1492.27, 0.263462
1492.7, 0.263754
1493.13, 0.263637
1493.56, 0.263288
1493.99, 0.263695
1494.42, 0.263987
1494.85, 0.264278
1495.29, 0.263987
1495.72, 0.263695
1496.15, 0.264103
1496.58, 0.264103
1497.01, 0.263695
1497.44, 0.264045
1497.88, 0.264452
1498.31, 0.264394
1498.74, 0.264278
1499.18, 0.264278
1499.61, 0.264569
1500.04, 0.264744
1500.48, 0.264394
1500.91, 0.264336
1501.35, 0.264802
1501.78, 0.264744
1502.22, 0.264452
1502.65, 0.264685
1503.09, 0.265035
1503.53, 0.264918
1503.96, 0.264394
1504.4, 0.264394
1504.83, 0.264685
1505.27, 0.264977
1505.71, 0.264977
1506.15, 0.264860
1506.58, 0.264627
1507.02, 0.264627
1507.46, 0.264627
1507.9, 0.264452
1508.34, 0.264452
1508.78, 0.264977
1509.21, 0.264860
1509.66, 0.264802
1510.09, 0.265093
1510.53, 0.264802
1510.97, 0.264627
1511.42, 0.264918
1511.86, 0.264977
1512.3, 0.264977
1512.74, 0.264918
1513.18, 0.264860
1513.62, 0.265035
1514.06, 0.265268
1514.51, 0.265151
1514.95, 0.265151
1515.39, 0.264802
1515.83, 0.264802
1516.28, 0.265035
1516.72, 0.264977
1517.16, 0.264511
1517.61, 0.264569
1518.05, 0.264918
1518.5, 0.264977
1518.94, 0.264802
1519.39, 0.264802
1519.83, 0.264511
1520.28, 0.264394
1520.73, 0.264569
1521.17, 0.264569
1521.62, 0.264511
1522.07, 0.264394
1522.51, 0.264103
1522.96, 0.264336
1523.41, 0.264452
1523.85, 0.264219
1524.3, 0.263928
1524.75, 0.264278
1525.2, 0.264744
1525.65, 0.264569
1526.1, 0.264219
1526.55, 0.264161
1527.0, 0.263812
1527.45, 0.263637
1527.9, 0.263870
1528.35, 0.263928
1528.8, 0.264103
1529.25, 0.264045
1529.7, 0.263812
1530.15, 0.263695
1530.6, 0.263637
1531.05, 0.263579
1531.51, 0.263288
1531.96, 0.263171
1532.41, 0.263288
1532.87, 0.263637
1533.32, 0.263754
1533.77, 0.263462
1534.23, 0.263346
1534.68, 0.263404
1535.14, 0.263288
1535.59, 0.263346
1536.05, 0.263171
1536.5, 0.263230
1536.96, 0.263346
1537.41, 0.263404
1537.87, 0.263462
1538.32, 0.263637
1538.78, 0.263404
1539.24, 0.263230
1539.7, 0.263288
1540.15, 0.263637
1540.61, 0.263404
1541.07, 0.263288
1541.53, 0.263404
1541.98, 0.263404
1542.44, 0.263288
1542.9, 0.263404
1543.36, 0.263404
1543.82, 0.263288
1544.28, 0.263113
1544.74, 0.262997
1545.2, 0.263055
1545.66, 0.263230
1546.12, 0.263579
1546.59, 0.263754
1547.05, 0.263404
1547.51, 0.263404
1547.97, 0.263404
1548.43, 0.263288
1548.9, 0.263230
1549.36, 0.263171
1549.82, 0.262822
1550.29, 0.262822
1550.75, 0.262647
1551.21, 0.262938
1551.68, 0.262997
1552.14, 0.262997
1552.61, 0.262938
1553.07, 0.262997
1553.54, 0.263055
1554.0, 0.263113
1554.47, 0.262647
1554.93, 0.262705
1555.4, 0.263055
1555.87, 0.263113
1556.34, 0.262705
1556.8, 0.262589
1557.27, 0.262764
1557.74, 0.262997
1558.21, 0.262997
1558.68, 0.262705
1559.14, 0.262472
1559.61, 0.262414
1560.08, 0.262472
1560.55, 0.262705
1561.02, 0.262472
1561.49, 0.262414
1561.96, 0.262356
1562.43, 0.262298
1562.9, 0.262414
1563.38, 0.262414
1563.85, 0.262123
1564.32, 0.262123
1564.79, 0.262007
1565.26, 0.261715
1565.74, 0.261715
1566.21, 0.261890
1566.68, 0.261774
1567.16, 0.261657
1567.63, 0.261715
1568.1, 0.261832
1568.58, 0.261715
1569.05, 0.261541
1569.53, 0.261424
1570.0, 0.261541
1570.48, 0.261599
1570.96, 0.261366
1571.43, 0.261075
1571.91, 0.261308
1572.39, 0.261308
1572.86, 0.261191
1573.34, 0.261017
1573.82, 0.261075
1574.3, 0.261133
1574.77, 0.261075
1575.25, 0.260842
1575.73, 0.260609
1576.21, 0.260551
1576.69, 0.260609
1577.17, 0.260434
1577.65, 0.260434
1578.13, 0.260492
1578.61, 0.260318
1579.09, 0.260201
1579.57, 0.260376
1580.05, 0.260492
1580.54, 0.260434
1581.02, 0.260259
1581.5, 0.259735
1581.98, 0.259502
1582.47, 0.259677
1582.95, 0.259794
1583.43, 0.259910
1583.92, 0.259561
1584.4, 0.259386
1584.88, 0.259502
1585.37, 0.259444
1585.85, 0.258920
1586.34, 0.259095
1586.82, 0.259386
1587.31, 0.259269
1587.8, 0.258978
1588.28, 0.258804
1588.77, 0.258804
1589.26, 0.258804
1589.74, 0.258804
1590.23, 0.258745
1590.72, 0.258745
1591.21, 0.258687
1591.7, 0.258629
1592.19, 0.258571
1592.67, 0.258279
1593.16, 0.258338
1593.65, 0.258221
1594.14, 0.257930
1594.63, 0.257872
1595.12, 0.257813
1595.61, 0.257755
1596.11, 0.257872
1596.6, 0.257930
1597.09, 0.257872
1597.58, 0.257522
1598.08, 0.257581
1598.57, 0.257639
1599.06, 0.257464
1599.55, 0.257348
1600.05, 0.257581
1600.54, 0.257406
1601.04, 0.257348
1601.53, 0.257464
1602.03, 0.257464
1602.52, 0.257522
1603.02, 0.257581
1603.51, 0.257464
1604.01, 0.257231
1604.5, 0.256998
1605.0, 0.256882
1605.5, 0.256765
1606.0, 0.256823
1606.49, 0.256940
1606.99, 0.256823
1607.49, 0.256823
1607.99, 0.256882
1608.49, 0.256882
1608.99, 0.257056
1609.49, 0.256707
1609.99, 0.256299
1610.49, 0.256299
1610.99, 0.256765
1611.49, 0.256940
1611.99, 0.256707
1612.49, 0.256474
1612.99, 0.256299
1613.49, 0.256299
1614.0, 0.256532
1614.5, 0.256416
1615.0, 0.256125
1615.51, 0.256183
1616.01, 0.256299
1616.51, 0.256183
1617.02, 0.256241
1617.52, 0.256241
1618.03, 0.256066
1618.53, 0.256008
1619.04, 0.255892
1619.54, 0.255833
1620.05, 0.255892
1620.55, 0.255950
1621.06, 0.256299
1621.57, 0.256183
1622.08, 0.255950
1622.58, 0.255833
1623.09, 0.255484
1623.6, 0.255309
1624.11, 0.255659
1624.62, 0.255833
1625.13, 0.255659
1625.64, 0.255542
1626.15, 0.255717
1626.66, 0.255659
1627.17, 0.255833
1627.68, 0.255717
1628.19, 0.255542
1628.7, 0.255484
1629.21, 0.255484
1629.72, 0.255542
1630.24, 0.255601
1630.75, 0.255542
1631.26, 0.255309
1631.78, 0.255193
1632.29, 0.255193
1632.8, 0.255251
1633.32, 0.254902
1633.83, 0.254669
1634.35, 0.254843
1634.86, 0.254785
1635.38, 0.254843
1635.9, 0.254902
1636.41, 0.254785
1636.93, 0.254902
1637.45, 0.255076
1637.96, 0.255135
1638.48, 0.254727
1639.0, 0.254669
1639.52, 0.254902
1640.04, 0.254610
1640.56, 0.254319
1641.08, 0.254203
1641.59, 0.254028
1642.11, 0.254145
1642.63, 0.254086
1643.16, 0.253970
1643.68, 0.254086
1644.2, 0.254261
1644.72, 0.254261
1645.24, 0.254086
1645.76, 0.253853
1646.29, 0.253912
1646.81, 0.254086
1647.33, 0.253912
1647.86, 0.253795
1648.38, 0.253679
1648.9, 0.253562
1649.43, 0.253562
1649.95, 0.253795
1650.48, 0.253679
1651.0, 0.253737
1651.53, 0.253737
1652.06, 0.253562
1652.58, 0.253388
1653.11, 0.253388
1653.64, 0.252980
1654.17, 0.253038
1654.69, 0.253504
1655.22, 0.253504
1655.75, 0.253155
1656.28, 0.253038
1656.81, 0.253096
1657.34, 0.253096
1657.87, 0.252922
1658.4, 0.252747
1658.93, 0.252630
1659.46, 0.252514
1659.99, 0.252572
1660.52, 0.252980
1661.05, 0.253271
1661.59, 0.253155
1662.12, 0.253038
1662.65, 0.252980
1663.19, 0.252630
1663.72, 0.252281
1664.26, 0.252514
1664.79, 0.252747
1665.32, 0.252572
1665.86, 0.252630
1666.39, 0.252980
1666.93, 0.252980
1667.47, 0.252747
1668.0, 0.252630
1668.54, 0.252397
1669.08, 0.252630
1669.61, 0.252805
1670.15, 0.252805
1670.69, 0.252863
1671.23, 0.253038
1671.77, 0.252980
1672.31, 0.252805
1672.85, 0.252630
1673.39, 0.252630
1673.93, 0.252397
1674.47, 0.252514
1675.01, 0.252747
1675.55, 0.252747
1676.09, 0.252805
1676.64, 0.252572
1677.18, 0.252572
1677.72, 0.252747
1678.26, 0.252572
1678.81, 0.252456
1679.35, 0.252630
1679.89, 0.252980
1680.44, 0.253155
1680.98, 0.253096
1681.53, 0.253096
1682.07, 0.252922
1682.62, 0.252922
1683.17, 0.252980
1683.71, 0.252863
1684.26, 0.252863
1684.81, 0.252922
1685.36, 0.252922
1685.9, 0.252922
1686.45, 0.253038
1687.0, 0.253155
1687.55, 0.253388
1688.1, 0.253329
1688.65, 0.253562
1689.2, 0.253388
1689.75, 0.253213
1690.3, 0.253388
1690.85, 0.253562
1691.41, 0.253271
1691.96, 0.253446
1692.51, 0.253620
1693.06, 0.253446
1693.61, 0.253213
1694.17, 0.253155
1694.72, 0.253388
1695.28, 0.253737
1695.83, 0.253853
1696.39, 0.253737
1696.94, 0.253795
1697.5, 0.253912
1698.05, 0.254028
1698.61, 0.253970
1699.17, 0.254145
1699.72, 0.254378
1700.28, 0.254261
1700.84, 0.254261
1701.4, 0.254203
1701.95, 0.254086
1702.51, 0.254378
1703.07, 0.254552
1703.63, 0.254436
1704.19, 0.254378
1704.75, 0.254319
1705.31, 0.254378
1705.88, 0.254552
1706.44, 0.254610
1707.0, 0.254610
1707.56, 0.254669
1708.12, 0.254785
1708.69, 0.254902
1709.25, 0.254669
1709.81, 0.254785
1710.38, 0.254727
1710.94, 0.254610
1711.51, 0.254669
1712.07, 0.254902
1712.64, 0.255076
1713.2, 0.254902
1713.77, 0.254727
1714.34, 0.254843
1714.9, 0.254902
1715.47, 0.255193
1716.04, 0.255193
1716.61, 0.255076
1717.18, 0.255076
1717.74, 0.255309
1718.31, 0.255251
1718.88, 0.255309
1719.45, 0.255542
1720.02, 0.255659
1720.59, 0.255484
1721.17, 0.255484
1721.74, 0.255775
1722.31, 0.255833
1722.88, 0.255775
1723.45, 0.255892
1724.03, 0.255892
1724.6, 0.255833
1725.18, 0.255892
1725.75, 0.256008
1726.33, 0.256241
1726.9, 0.256416
1727.48, 0.256299
1728.05, 0.256241
1728.63, 0.256358
1729.2, 0.256299
1729.78, 0.256299
1730.36, 0.256591
1730.94, 0.256591
1731.51, 0.256474
1732.09, 0.256474
1732.67, 0.256707
1733.25, 0.256823
1733.83, 0.256823
1734.41, 0.256940
1734.99, 0.257173
1735.57, 0.257115
1736.15, 0.257115
1736.73, 0.256940
1737.32, 0.257115
1737.9, 0.257348
1738.48, 0.257348
1739.07, 0.257348
1739.65, 0.257639
1740.23, 0.257930
1740.82, 0.257872
1741.4, 0.257813
1741.99, 0.258163
1742.57, 0.258512
1743.16, 0.258629
1743.74, 0.258338
1744.33, 0.258396
1744.92, 0.258862
1745.51, 0.259036
1746.09, 0.259269
1746.68, 0.259095
1747.27, 0.258978
1747.86, 0.259269
1748.45, 0.259444
1749.04, 0.259619
1749.63, 0.259852
1750.22, 0.260085
1750.81, 0.260085
1751.4, 0.259735
1751.99, 0.259677
1752.59, 0.260026
1753.18, 0.260318
1753.77, 0.260434
1754.37, 0.260434
1754.96, 0.260609
1755.56, 0.260842
1756.15, 0.261017
1756.74, 0.260958
1757.34, 0.261017
1757.94, 0.261017
1758.53, 0.261366
1759.13, 0.261599
1759.73, 0.261657
1760.32, 0.261599
1760.92, 0.261774
1761.52, 0.261948
1762.12, 0.262298
1762.72, 0.262414
1763.32, 0.262531
1763.92, 0.262705
1764.52, 0.262764
1765.12, 0.263113
1765.72, 0.263288
1766.32, 0.263288
1766.92, 0.263346
1767.53, 0.263462
1768.13, 0.263637
1768.73, 0.263812
1769.34, 0.263812
1769.94, 0.263928
1770.55, 0.264452
1771.15, 0.264569
1771.76, 0.264511
1772.36, 0.264452
1772.97, 0.264511
1773.57, 0.264569
1774.18, 0.264860
1774.79, 0.265151
1775.4, 0.265151
1776.0, 0.265210
1776.61, 0.265617
1777.22, 0.265850
1777.83, 0.265850
1778.44, 0.265850
1779.05, 0.265967
1779.66, 0.266316
1780.27, 0.266549
1780.88, 0.266607
1781.5, 0.266665
1782.11, 0.266840
1782.72, 0.266957
1783.33, 0.267073
1783.95, 0.267073
1784.56, 0.267306
1785.18, 0.267364
1785.79, 0.267364
1786.41, 0.267597
1787.02, 0.267772
1787.64, 0.267830
1788.26, 0.267830
1788.87, 0.268063
1789.49, 0.268296
1790.11, 0.268413
1790.73, 0.268529
1791.35, 0.268704
1791.96, 0.268937
1792.58, 0.268995
1793.21, 0.269111
1793.83, 0.269170
1794.45, 0.269111
1795.07, 0.269344
1795.69, 0.269694
1796.31, 0.269810
1796.93, 0.270043
1797.56, 0.270160
1798.18, 0.270218
1798.8, 0.270393
1799.43, 0.270451
1800.05, 0.270393
1800.68, 0.270451
1801.3, 0.270684
1801.93, 0.270742
1802.56, 0.271091
1803.18, 0.271324
1803.81, 0.271441
1804.44, 0.271557
1805.07, 0.271674
1805.7, 0.271616
1806.33, 0.271732
1806.95, 0.271965
1807.58, 0.272256
1808.22, 0.272373
1808.85, 0.272431
1809.48, 0.272606
1810.11, 0.272722
1810.74, 0.272722
1811.38, 0.272955
1812.01, 0.273071
1812.64, 0.273188
1813.28, 0.273304
1813.91, 0.273421
1814.55, 0.273596
1815.18, 0.273887
1815.82, 0.274003
1816.45, 0.274178
1817.09, 0.274353
1817.73, 0.274586
1818.36, 0.274586
1819.0, 0.274702
1819.64, 0.274819
1820.28, 0.274935
1820.92, 0.275052
1821.56, 0.275343
1822.2, 0.275750
1822.84, 0.275925
1823.48, 0.276100
1824.12, 0.276275
1824.76, 0.276391
1825.41, 0.276449
1826.05, 0.276507
1826.69, 0.276799
1827.34, 0.277032
1827.98, 0.277090
1828.63, 0.277323
1829.27, 0.277730
1829.92, 0.277789
1830.56, 0.277672
1831.21, 0.277672
1831.86, 0.277963
1832.5, 0.278488
1833.15, 0.278953
1833.8, 0.278953
1834.45, 0.278837
1835.1, 0.278895
1835.75, 0.278953
1836.4, 0.279128
1837.05, 0.279419
1837.7, 0.279652
1838.35, 0.280060
1839.01, 0.280235
1839.66, 0.280176
1840.31, 0.280468
1840.96, 0.280817
1841.62, 0.280701
1842.27, 0.281108
1842.93, 0.281574
1843.58, 0.281691
1844.24, 0.281923
1844.9, 0.282098
1845.55, 0.282331
1846.21, 0.282389
1846.87, 0.282040
1847.53, 0.282273
1848.18, 0.282564
1848.84, 0.283146
1849.5, 0.283612
1850.16, 0.283787
1850.82, 0.283845
1851.48, 0.283962
1852.14, 0.284020
1852.81, 0.284020
1853.47, 0.283845
1854.13, 0.284195
1854.8, 0.284835
1855.46, 0.284894
1856.12, 0.284894
1856.79, 0.285068
1857.45, 0.285359
1858.12, 0.285534
1858.79, 0.285476
1859.45, 0.285359
1860.12, 0.285592
1860.79, 0.286058
1861.46, 0.286466
1862.12, 0.286699
1862.79, 0.286874
1863.46, 0.286815
1864.13, 0.286699
1864.8, 0.286874
1865.48, 0.287048
1866.15, 0.287398
1866.82, 0.287398
1867.49, 0.287107
1868.16, 0.287339
1868.84, 0.287689
1869.51, 0.287805
1870.19, 0.287747
1870.86, 0.287747
1871.54, 0.288213
1872.21, 0.288213
1872.89, 0.288155
1873.56, 0.288621
1874.24, 0.289145
1874.92, 0.289145
1875.6, 0.289436
1876.28, 0.289669
1876.96, 0.289727
1877.64, 0.289960
1878.32, 0.290251
1879.0, 0.290193
1879.68, 0.290251
1880.36, 0.290368
1881.04, 0.290426
1881.73, 0.290542
1882.41, 0.290775
1883.09, 0.290775
1883.78, 0.290601
1884.46, 0.290892
1885.15, 0.291416
1885.83, 0.291649
1886.52, 0.291707
1887.21, 0.291824
1887.89, 0.292115
1888.58, 0.292231
1889.27, 0.291998
1889.96, 0.291998
1890.65, 0.292464
1891.34, 0.292814
1892.03, 0.292872
1892.72, 0.292755
1893.41, 0.292755
1894.1, 0.292988
1894.79, 0.293338
1895.49, 0.293513
1896.18, 0.293687
1896.87, 0.293745
1897.57, 0.293745
1898.26, 0.293745
1898.96, 0.293396
1899.65, 0.293221
1900.35, 0.293745
1901.05, 0.294211
1901.74, 0.294270
1902.44, 0.294211
1903.14, 0.294619
1903.84, 0.294794
1904.54, 0.294444
1905.24, 0.294503
1905.94, 0.295027
1906.64, 0.295260
1907.34, 0.295609
1908.04, 0.295900
1908.75, 0.295900
1909.45, 0.296017
1910.15, 0.296075
1910.86, 0.296133
1911.56, 0.296424
1912.27, 0.296541
1912.97, 0.296308
1913.68, 0.296424
1914.39, 0.297007
1915.09, 0.297240
1915.8, 0.297240
1916.51, 0.297414
1917.22, 0.297589
1917.93, 0.297647
1918.64, 0.297822
1919.35, 0.297880
1920.06, 0.297764
1920.77, 0.298055
1921.48, 0.298696
1922.19, 0.298812
1922.91, 0.298987
1923.62, 0.298987
1924.33, 0.298929
1925.05, 0.299161
1925.76, 0.299511
1926.48, 0.299569
1927.19, 0.299686
1927.91, 0.299802
1928.63, 0.299919
1929.35, 0.300035
1930.07, 0.300093
1930.78, 0.300384
1931.5, 0.300850
1932.22, 0.300909
1932.94, 0.300850
1933.66, 0.300734
1934.39, 0.300909
1935.11, 0.301025
1935.83, 0.301025
1936.55, 0.301142
1937.28, 0.301607
1938.0, 0.301724
1938.73, 0.301607
1939.45, 0.301724
1940.18, 0.302073
1940.9, 0.302248
1941.63, 0.302306
1942.36, 0.302597
1943.09, 0.302772
1943.81, 0.302656
1944.54, 0.302656
1945.27, 0.302947
1946.0, 0.303063
1946.73, 0.303122
1947.47, 0.303238
1948.2, 0.303413
1948.93, 0.303529
1949.66, 0.303587
1950.4, 0.303762
1951.13, 0.303879
1951.86, 0.303995
1952.6, 0.304053
1953.34, 0.304053
1954.07, 0.304112
1954.81, 0.304170
1955.55, 0.304228
1956.29, 0.304286
1957.02, 0.304286
1957.76, 0.304345
1958.5, 0.304461
1959.24, 0.304694
1959.98, 0.304752
1960.72, 0.304810
1961.47, 0.304927
1962.21, 0.304985
1962.95, 0.304927
1963.7, 0.304810
1964.44, 0.304752
1965.18, 0.304927
1965.93, 0.305043
1966.67, 0.305160
1967.42, 0.305102
1968.17, 0.305160
1968.92, 0.305276
1969.66, 0.305451
1970.41, 0.305568
1971.16, 0.305626
1971.91, 0.305568
1972.66, 0.305509
1973.41, 0.305568
1974.16, 0.305742
1974.92, 0.305742
1975.67, 0.305800
1976.42, 0.305800
1977.18, 0.305859
1977.93, 0.305917
1978.69, 0.305684
1979.44, 0.305568
1980.2, 0.305800
1980.95, 0.305859
1981.71, 0.305917
1982.47, 0.305917
1983.23, 0.305975
1983.99, 0.305975
1984.74, 0.305917
1985.51, 0.305975
1986.27, 0.306092
1987.03, 0.306150
1987.79, 0.306150
1988.55, 0.306208
1989.32, 0.306266
1990.08, 0.306092
1990.84, 0.306092
1991.61, 0.306208
1992.37, 0.306150
1993.14, 0.306033
1993.9, 0.306150
1994.67, 0.306383
1995.44, 0.306383
