Database of Origin, USGS Spectral Database
Sample Description, See USGS database for additional info
Date Added,2016-08-10 02:55:34.421283

Data ID,USGS_hem10          
Sample ID, hematite_gds69.9495
Mineral Name, hematite
Material Class,Oxide

Wavelength
1414.5, 0.163479
1414.89, 0.163087
1415.28, 0.162913
1415.66, 0.162913
1416.05, 0.163087
1416.44, 0.163261
1416.82, 0.163043
1417.21, 0.163000
1417.6, 0.163131
1417.98, 0.163218
1418.37, 0.163131
1418.76, 0.163261
1419.15, 0.163305
1419.54, 0.163261
1419.93, 0.163174
1420.32, 0.163435
1420.71, 0.163435
1421.09, 0.163131
1421.48, 0.163218
1421.88, 0.163261
1422.27, 0.163218
1422.66, 0.163261
1423.05, 0.163131
1423.44, 0.163305
1423.83, 0.163479
1424.22, 0.163218
1424.61, 0.162956
1425.0, 0.163174
1425.39, 0.163653
1425.78, 0.163479
1426.18, 0.163305
1426.57, 0.163261
1426.96, 0.163566
1427.36, 0.163740
1427.75, 0.163696
1428.14, 0.163479
1428.54, 0.163261
1428.93, 0.163305
1429.32, 0.163479
1429.72, 0.163435
1430.11, 0.163522
1430.51, 0.163827
1430.9, 0.163827
1431.3, 0.163696
1431.69, 0.163653
1432.09, 0.163740
1432.48, 0.163827
1432.88, 0.163827
1433.28, 0.163783
1433.67, 0.163870
1434.07, 0.163783
1434.46, 0.163696
1434.86, 0.163479
1435.26, 0.163479
1435.66, 0.163566
1436.05, 0.163870
1436.45, 0.164132
1436.85, 0.164045
1437.25, 0.164045
1437.65, 0.164219
1438.05, 0.163740
1438.44, 0.163479
1438.84, 0.163696
1439.24, 0.163609
1439.64, 0.163392
1440.04, 0.163522
1440.44, 0.163653
1440.84, 0.163914
1441.24, 0.163957
1441.65, 0.163696
1442.05, 0.163609
1442.45, 0.163609
1442.85, 0.163740
1443.25, 0.163740
1443.65, 0.163566
1444.05, 0.163696
1444.46, 0.163827
1444.86, 0.164088
1445.26, 0.164219
1445.67, 0.163957
1446.07, 0.163827
1446.47, 0.163827
1446.88, 0.163914
1447.28, 0.163740
1447.68, 0.163653
1448.09, 0.163783
1448.49, 0.163870
1448.9, 0.163870
1449.3, 0.163522
1449.71, 0.163653
1450.11, 0.164001
1450.52, 0.163870
1450.93, 0.163522
1451.33, 0.163609
1451.74, 0.163609
1452.14, 0.163696
1452.55, 0.163609
1452.96, 0.163696
1453.36, 0.163914
1453.77, 0.164001
1454.18, 0.163827
1454.59, 0.164088
1455.0, 0.164132
1455.41, 0.163870
1455.81, 0.163783
1456.22, 0.163696
1456.63, 0.163870
1457.04, 0.164132
1457.45, 0.163914
1457.86, 0.163783
1458.27, 0.163914
1458.68, 0.163870
1459.09, 0.163870
1459.5, 0.163783
1459.91, 0.163827
1460.32, 0.163870
1460.74, 0.163827
1461.15, 0.163827
1461.56, 0.163696
1461.97, 0.163740
1462.39, 0.163827
1462.8, 0.164045
1463.21, 0.164045
1463.62, 0.164045
1464.04, 0.164001
1464.45, 0.164132
1464.86, 0.164088
1465.28, 0.163827
1465.69, 0.163696
1466.11, 0.163870
1466.52, 0.163957
1466.94, 0.163914
1467.35, 0.163696
1467.77, 0.163783
1468.18, 0.164132
1468.6, 0.164088
1469.02, 0.164001
1469.43, 0.164045
1469.85, 0.163870
1470.27, 0.163696
1470.68, 0.163609
1471.1, 0.163783
1471.52, 0.163914
1471.94, 0.163914
1472.35, 0.163914
1472.77, 0.163783
1473.19, 0.163696
1473.61, 0.163914
1474.03, 0.164175
1474.45, 0.164219
1474.87, 0.163914
1475.29, 0.163914
1475.71, 0.164088
1476.13, 0.164045
1476.55, 0.164175
1476.97, 0.164175
1477.39, 0.164306
1477.81, 0.164262
1478.23, 0.164306
1478.65, 0.164654
1479.07, 0.164915
1479.5, 0.164959
1479.92, 0.164872
1480.34, 0.164523
1480.76, 0.164436
1481.19, 0.164480
1481.61, 0.164436
1482.03, 0.164436
1482.46, 0.164567
1482.88, 0.164697
1483.31, 0.164959
1483.73, 0.165133
1484.16, 0.165133
1484.58, 0.165133
1485.01, 0.164784
1485.43, 0.164959
1485.86, 0.165307
1486.28, 0.165220
1486.71, 0.165263
1487.14, 0.165394
1487.56, 0.165568
1487.99, 0.165481
1488.42, 0.165481
1488.84, 0.165481
1489.27, 0.165263
1489.7, 0.165263
1490.13, 0.165263
1490.56, 0.165089
1490.98, 0.165394
1491.41, 0.165611
1491.84, 0.165481
1492.27, 0.165350
1492.7, 0.165568
1493.13, 0.165916
1493.56, 0.165916
1493.99, 0.165786
1494.42, 0.165873
1494.85, 0.165829
1495.29, 0.165655
1495.72, 0.166003
1496.15, 0.165960
1496.58, 0.165655
1497.01, 0.165611
1497.44, 0.165960
1497.88, 0.165960
1498.31, 0.165916
1498.74, 0.165960
1499.18, 0.166003
1499.61, 0.166047
1500.04, 0.166264
1500.48, 0.166264
1500.91, 0.166134
1501.35, 0.166264
1501.78, 0.166264
1502.22, 0.166264
1502.65, 0.166134
1503.09, 0.166134
1503.53, 0.166395
1503.96, 0.166351
1504.4, 0.166221
1504.83, 0.166569
1505.27, 0.166656
1505.71, 0.166351
1506.15, 0.166264
1506.58, 0.166656
1507.02, 0.166743
1507.46, 0.166656
1507.9, 0.166700
1508.34, 0.166700
1508.78, 0.166917
1509.21, 0.166700
1509.66, 0.166569
1510.09, 0.166700
1510.53, 0.166656
1510.97, 0.166525
1511.42, 0.166525
1511.86, 0.166830
1512.3, 0.166656
1512.74, 0.166438
1513.18, 0.166917
1513.62, 0.167309
1514.06, 0.167265
1514.51, 0.167048
1514.95, 0.166917
1515.39, 0.166830
1515.83, 0.166830
1516.28, 0.167004
1516.72, 0.167091
1517.16, 0.166917
1517.61, 0.167048
1518.05, 0.167048
1518.5, 0.167048
1518.94, 0.167135
1519.39, 0.167352
1519.83, 0.167396
1520.28, 0.167309
1520.73, 0.167309
1521.17, 0.167178
1521.62, 0.167265
1522.07, 0.167309
1522.51, 0.167483
1522.96, 0.167657
1523.41, 0.167701
1523.85, 0.167744
1524.3, 0.167614
1524.75, 0.167352
1525.2, 0.167483
1525.65, 0.167831
1526.1, 0.168049
1526.55, 0.168005
1527.0, 0.167831
1527.45, 0.167701
1527.9, 0.167701
1528.35, 0.167614
1528.8, 0.167614
1529.25, 0.167614
1529.7, 0.167744
1530.15, 0.167918
1530.6, 0.168092
1531.05, 0.168223
1531.51, 0.168223
1531.96, 0.168092
1532.41, 0.168136
1532.87, 0.168179
1533.32, 0.168136
1533.77, 0.168441
1534.23, 0.168832
1534.68, 0.168919
1535.14, 0.168789
1535.59, 0.168702
1536.05, 0.168658
1536.5, 0.169006
1536.96, 0.169224
1537.41, 0.168919
1537.87, 0.169006
1538.32, 0.169311
1538.78, 0.169137
1539.24, 0.169137
1539.7, 0.169137
1540.15, 0.169180
1540.61, 0.169442
1541.07, 0.169529
1541.53, 0.169529
1541.98, 0.169485
1542.44, 0.169572
1542.9, 0.169703
1543.36, 0.169529
1543.82, 0.169572
1544.28, 0.169659
1544.74, 0.169572
1545.2, 0.169659
1545.66, 0.169833
1546.12, 0.169833
1546.59, 0.169790
1547.05, 0.169964
1547.51, 0.169964
1547.97, 0.170051
1548.43, 0.170225
1548.9, 0.170486
1549.36, 0.170443
1549.82, 0.170312
1550.29, 0.170356
1550.75, 0.170443
1551.21, 0.170486
1551.68, 0.170704
1552.14, 0.171008
1552.61, 0.170965
1553.07, 0.170834
1553.54, 0.170747
1554.0, 0.170878
1554.47, 0.171096
1554.93, 0.171226
1555.4, 0.171226
1555.87, 0.171531
1556.34, 0.171531
1556.8, 0.171270
1557.27, 0.171270
1557.74, 0.171487
1558.21, 0.171661
1558.68, 0.171531
1559.14, 0.171618
1559.61, 0.171879
1560.08, 0.171835
1560.55, 0.171748
1561.02, 0.171966
1561.49, 0.171879
1561.96, 0.171705
1562.43, 0.171835
1562.9, 0.172053
1563.38, 0.172053
1563.85, 0.172097
1564.32, 0.172010
1564.79, 0.172097
1565.26, 0.172010
1565.74, 0.172271
1566.21, 0.172358
1566.68, 0.172401
1567.16, 0.172488
1567.63, 0.172445
1568.1, 0.172488
1568.58, 0.172619
1569.05, 0.172662
1569.53, 0.172924
1570.0, 0.173054
1570.48, 0.172837
1570.96, 0.172749
1571.43, 0.172749
1571.91, 0.172445
1572.39, 0.172575
1572.86, 0.172924
1573.34, 0.172880
1573.82, 0.173098
1574.3, 0.173054
1574.77, 0.173011
1575.25, 0.173011
1575.73, 0.173228
1576.21, 0.173228
1576.69, 0.173098
1577.17, 0.173228
1577.65, 0.173446
1578.13, 0.173489
1578.61, 0.173402
1579.09, 0.173402
1579.57, 0.173446
1580.05, 0.173707
1580.54, 0.173751
1581.02, 0.173663
1581.5, 0.173663
1581.98, 0.173707
1582.47, 0.173925
1582.95, 0.173925
1583.43, 0.173794
1583.92, 0.173881
1584.4, 0.173968
1584.88, 0.173794
1585.37, 0.174012
1585.85, 0.174447
1586.34, 0.174490
1586.82, 0.174142
1587.31, 0.174012
1587.8, 0.174360
1588.28, 0.174316
1588.77, 0.174403
1589.26, 0.174490
1589.74, 0.174403
1590.23, 0.174490
1590.72, 0.174621
1591.21, 0.174752
1591.7, 0.174882
1592.19, 0.174752
1592.67, 0.174708
1593.16, 0.175056
1593.65, 0.175317
1594.14, 0.175143
1594.63, 0.174839
1595.12, 0.174795
1595.61, 0.175013
1596.11, 0.175317
1596.6, 0.175404
1597.09, 0.175404
1597.58, 0.175404
1598.08, 0.175448
1598.57, 0.175535
1599.06, 0.175927
1599.55, 0.175883
1600.05, 0.175970
1600.54, 0.175970
1601.04, 0.175970
1601.53, 0.175883
1602.03, 0.176101
1602.52, 0.176318
1603.02, 0.176275
1603.51, 0.176144
1604.01, 0.176231
1604.5, 0.176362
1605.0, 0.176580
1605.5, 0.176623
1606.0, 0.176667
1606.49, 0.176928
1606.99, 0.176971
1607.49, 0.176841
1607.99, 0.177102
1608.49, 0.177363
1608.99, 0.177363
1609.49, 0.177145
1609.99, 0.177102
1610.49, 0.177320
1610.99, 0.177624
1611.49, 0.177755
1611.99, 0.177929
1612.49, 0.177798
1612.99, 0.177972
1613.49, 0.178190
1614.0, 0.177972
1614.5, 0.177972
1615.0, 0.178147
1615.51, 0.178059
1616.01, 0.178147
1616.51, 0.178190
1617.02, 0.178190
1617.52, 0.178408
1618.03, 0.178669
1618.53, 0.178756
1619.04, 0.178712
1619.54, 0.178756
1620.05, 0.178799
1620.55, 0.178886
1621.06, 0.179061
1621.57, 0.178974
1622.08, 0.178886
1622.58, 0.179017
1623.09, 0.179148
1623.6, 0.179278
1624.11, 0.179626
1624.62, 0.179757
1625.13, 0.179670
1625.64, 0.179539
1626.15, 0.179583
1626.66, 0.179888
1627.17, 0.179888
1627.68, 0.179844
1628.19, 0.180062
1628.7, 0.180062
1629.21, 0.179975
1629.72, 0.180018
1630.24, 0.180236
1630.75, 0.180366
1631.26, 0.180453
1631.78, 0.180671
1632.29, 0.180627
1632.8, 0.180453
1633.32, 0.180497
1633.83, 0.180410
1634.35, 0.180497
1634.86, 0.180540
1635.38, 0.180584
1635.9, 0.180845
1636.41, 0.180932
1636.93, 0.180758
1637.45, 0.180802
1637.96, 0.180802
1638.48, 0.180540
1639.0, 0.180497
1639.52, 0.180584
1640.04, 0.180802
1640.56, 0.181019
1641.08, 0.181063
1641.59, 0.181106
1642.11, 0.181280
1642.63, 0.181367
1643.16, 0.181237
1643.68, 0.181150
1644.2, 0.181193
1644.72, 0.181280
1645.24, 0.181454
1645.76, 0.181541
1646.29, 0.181454
1646.81, 0.181585
1647.33, 0.181933
1647.86, 0.182064
1648.38, 0.181803
1648.9, 0.181716
1649.43, 0.181846
1649.95, 0.181933
1650.48, 0.182151
1651.0, 0.182238
1651.53, 0.182281
1652.06, 0.182281
1652.58, 0.182281
1653.11, 0.182194
1653.64, 0.182194
1654.17, 0.182325
1654.69, 0.182499
1655.22, 0.182717
1655.75, 0.182760
1656.28, 0.182586
1656.81, 0.182630
1657.34, 0.182673
1657.87, 0.182717
1658.4, 0.182847
1658.93, 0.182978
1659.46, 0.182978
1659.99, 0.182891
1660.52, 0.182978
1661.05, 0.183239
1661.59, 0.183500
1662.12, 0.183500
1662.65, 0.183500
1663.19, 0.183544
1663.72, 0.183761
1664.26, 0.183848
1664.79, 0.183761
1665.32, 0.183674
1665.86, 0.183848
1666.39, 0.183979
1666.93, 0.183979
1667.47, 0.183935
1668.0, 0.184196
1668.54, 0.184458
1669.08, 0.184458
1669.61, 0.184327
1670.15, 0.184327
1670.69, 0.184588
1671.23, 0.184675
1671.77, 0.184501
1672.31, 0.184588
1672.85, 0.184719
1673.39, 0.184936
1673.93, 0.185154
1674.47, 0.185285
1675.01, 0.185241
1675.55, 0.185241
1676.09, 0.185546
1676.64, 0.185415
1677.18, 0.185372
1677.72, 0.185589
1678.26, 0.185676
1678.81, 0.185720
1679.35, 0.185807
1679.89, 0.185850
1680.44, 0.186025
1680.98, 0.186286
1681.53, 0.186329
1682.07, 0.186286
1682.62, 0.186503
1683.17, 0.186547
1683.71, 0.186634
1684.26, 0.186808
1684.81, 0.186982
1685.36, 0.187026
1685.9, 0.187069
1686.45, 0.187200
1687.0, 0.187113
1687.55, 0.187156
1688.1, 0.187243
1688.65, 0.187417
1689.2, 0.187504
1689.75, 0.187635
1690.3, 0.187635
1690.85, 0.187417
1691.41, 0.187504
1691.96, 0.187809
1692.51, 0.187940
1693.06, 0.187983
1693.61, 0.188114
1694.17, 0.188244
1694.72, 0.188201
1695.28, 0.188331
1695.83, 0.188418
1696.39, 0.188375
1696.94, 0.188331
1697.5, 0.188418
1698.05, 0.188462
1698.61, 0.188505
1699.17, 0.188680
1699.72, 0.188723
1700.28, 0.188897
1700.84, 0.189071
1701.4, 0.188897
1701.95, 0.188810
1702.51, 0.188897
1703.07, 0.188941
1703.63, 0.189028
1704.19, 0.189071
1704.75, 0.188810
1705.31, 0.188897
1705.88, 0.189289
1706.44, 0.189550
1707.0, 0.189463
1707.56, 0.189202
1708.12, 0.189115
1708.69, 0.189332
1709.25, 0.189506
1709.81, 0.189550
1710.38, 0.189724
1710.94, 0.189898
1711.51, 0.189942
1712.07, 0.189811
1712.64, 0.189811
1713.2, 0.189942
1713.77, 0.189985
1714.34, 0.190116
1714.9, 0.190333
1715.47, 0.190333
1716.04, 0.190203
1716.61, 0.189985
1717.18, 0.190159
1717.74, 0.190377
1718.31, 0.190421
1718.88, 0.190464
1719.45, 0.190638
1720.02, 0.190769
1720.59, 0.190682
1721.17, 0.190595
1721.74, 0.190551
1722.31, 0.190638
1722.88, 0.190769
1723.45, 0.190986
1724.03, 0.191030
1724.6, 0.191204
1725.18, 0.191422
1725.75, 0.191247
1726.33, 0.191117
1726.9, 0.191073
1727.48, 0.191291
1728.05, 0.191596
1728.63, 0.191683
1729.2, 0.191639
1729.78, 0.191509
1730.36, 0.191596
1730.94, 0.191857
1731.51, 0.191944
1732.09, 0.191857
1732.67, 0.191813
1733.25, 0.191770
1733.83, 0.192031
1734.41, 0.192249
1734.99, 0.192118
1735.57, 0.192379
1736.15, 0.192640
1736.73, 0.192423
1737.32, 0.192466
1737.9, 0.192553
1738.48, 0.192771
1739.07, 0.192771
1739.65, 0.192727
1740.23, 0.192901
1740.82, 0.192988
1741.4, 0.192988
1741.99, 0.193380
1742.57, 0.193424
1743.16, 0.193206
1743.74, 0.193337
1744.33, 0.193598
1744.92, 0.193728
1745.51, 0.193728
1746.09, 0.193902
1746.68, 0.193946
1747.27, 0.193946
1747.86, 0.194120
1748.45, 0.194207
1749.04, 0.194164
1749.63, 0.194120
1750.22, 0.194251
1750.81, 0.194512
1751.4, 0.194729
1751.99, 0.194773
1752.59, 0.194642
1753.18, 0.194729
1753.77, 0.194904
1754.37, 0.195034
1754.96, 0.195208
1755.56, 0.195469
1756.15, 0.195643
1756.74, 0.195687
1757.34, 0.195687
1757.94, 0.195731
1758.53, 0.195774
1759.13, 0.195948
1759.73, 0.196079
1760.32, 0.196035
1760.92, 0.196166
1761.52, 0.196253
1762.12, 0.196209
1762.72, 0.196253
1763.32, 0.196514
1763.92, 0.196645
1764.52, 0.196557
1765.12, 0.196514
1765.72, 0.196645
1766.32, 0.196862
1766.92, 0.196949
1767.53, 0.196949
1768.13, 0.197036
1768.73, 0.197254
1769.34, 0.197341
1769.94, 0.197384
1770.55, 0.197384
1771.15, 0.197384
1771.76, 0.197384
1772.36, 0.197341
1772.97, 0.197428
1773.57, 0.197559
1774.18, 0.197428
1774.79, 0.197428
1775.4, 0.197733
1776.0, 0.197950
1776.61, 0.197820
1777.22, 0.197689
1777.83, 0.197820
1778.44, 0.198168
1779.05, 0.198386
1779.66, 0.198386
1780.27, 0.198342
1780.88, 0.198386
1781.5, 0.198386
1782.11, 0.198429
1782.72, 0.198298
1783.33, 0.198298
1783.95, 0.198734
1784.56, 0.198951
1785.18, 0.198951
1785.79, 0.198951
1786.41, 0.198995
1787.02, 0.199169
1787.64, 0.199169
1788.26, 0.198995
1788.87, 0.199038
1789.49, 0.199038
1790.11, 0.199212
1790.73, 0.199343
1791.35, 0.199212
1791.96, 0.199082
1792.58, 0.199256
1793.21, 0.199300
1793.83, 0.199256
1794.45, 0.199517
1795.07, 0.199604
1795.69, 0.199648
1796.31, 0.199822
1796.93, 0.199822
1797.56, 0.200039
1798.18, 0.199952
1798.8, 0.199909
1799.43, 0.200083
1800.05, 0.200301
1800.68, 0.200344
1801.3, 0.200301
1801.93, 0.200518
1802.56, 0.200649
1803.18, 0.200431
1803.81, 0.200344
1804.44, 0.200605
1805.07, 0.200910
1805.7, 0.201084
1806.33, 0.201041
1806.95, 0.200866
1807.58, 0.200910
1808.22, 0.200997
1808.85, 0.200953
1809.48, 0.200866
1810.11, 0.201041
1810.74, 0.201302
1811.38, 0.201302
1812.01, 0.201389
1812.64, 0.201519
1813.28, 0.201476
1813.91, 0.201519
1814.55, 0.201780
1815.18, 0.202303
1815.82, 0.202172
1816.45, 0.202085
1817.09, 0.202129
1817.73, 0.202129
1818.36, 0.202172
1819.0, 0.202346
1819.64, 0.203173
1820.28, 0.203783
1820.92, 0.203478
1821.56, 0.203478
1822.2, 0.203086
1822.84, 0.202738
1823.48, 0.202738
1824.12, 0.202825
1824.76, 0.202956
1825.41, 0.204044
1826.05, 0.205045
1826.69, 0.204044
1827.34, 0.203217
1827.98, 0.203739
1828.63, 0.204087
1829.27, 0.204174
1829.92, 0.204479
1830.56, 0.205132
1831.21, 0.204958
1831.86, 0.204392
1832.5, 0.204435
1833.15, 0.204261
1833.8, 0.204435
1834.45, 0.205262
1835.1, 0.205741
1835.75, 0.206394
1836.4, 0.206307
1837.05, 0.206525
1837.7, 0.206829
1838.35, 0.205654
1839.01, 0.206220
1839.66, 0.207308
1840.31, 0.206438
1840.96, 0.206655
1841.62, 0.208048
1842.27, 0.207003
1842.93, 0.206046
1843.58, 0.206046
1844.24, 0.205915
1844.9, 0.205828
1845.55, 0.206176
1846.21, 0.207874
1846.87, 0.209223
1847.53, 0.208614
1848.18, 0.208048
1848.84, 0.206873
1849.5, 0.206568
1850.16, 0.206786
1850.82, 0.207003
1851.48, 0.206829
1852.14, 0.207134
1852.81, 0.208004
1853.47, 0.209310
1854.13, 0.208527
1854.8, 0.207308
1855.46, 0.207482
1856.12, 0.208701
1856.79, 0.208701
1857.45, 0.207700
1858.12, 0.207526
1858.79, 0.208527
1859.45, 0.209963
1860.12, 0.209223
1860.79, 0.208179
1861.46, 0.207743
1862.12, 0.207743
1862.79, 0.207743
1863.46, 0.208135
1864.13, 0.208483
1864.8, 0.208222
1865.48, 0.208004
1866.15, 0.208179
1866.82, 0.209310
1867.49, 0.210703
1868.16, 0.209963
1868.84, 0.209093
1869.51, 0.209223
1870.19, 0.210703
1870.86, 0.211617
1871.54, 0.209920
1872.21, 0.210311
1872.89, 0.211617
1873.56, 0.210442
1874.24, 0.209267
1874.92, 0.209354
1875.6, 0.209223
1876.28, 0.209833
1876.96, 0.210268
1877.64, 0.209441
1878.32, 0.209223
1879.0, 0.209136
1879.68, 0.209136
1880.36, 0.209267
1881.04, 0.209267
1881.73, 0.209267
1882.41, 0.209484
1883.09, 0.210094
1883.78, 0.210703
1884.46, 0.210007
1885.15, 0.209571
1885.83, 0.209745
1886.52, 0.209789
1887.21, 0.209571
1887.89, 0.209528
1888.58, 0.209702
1889.27, 0.210529
1889.96, 0.211269
1890.65, 0.210398
1891.34, 0.210355
1892.03, 0.210616
1892.72, 0.210311
1893.41, 0.210355
1894.1, 0.209963
1894.79, 0.209833
1895.49, 0.210094
1896.18, 0.210224
1896.87, 0.210398
1897.57, 0.210747
1898.26, 0.210921
1898.96, 0.212183
1899.65, 0.212662
1900.35, 0.211530
1901.05, 0.210616
1901.74, 0.210877
1902.44, 0.212052
1903.14, 0.211704
1903.84, 0.210921
1904.54, 0.212139
1905.24, 0.212966
1905.94, 0.212575
1906.64, 0.212400
1907.34, 0.211573
1908.04, 0.211312
1908.75, 0.211269
1909.45, 0.211312
1910.15, 0.211617
1910.86, 0.211922
1911.56, 0.211878
1912.27, 0.211835
1912.97, 0.212836
1913.68, 0.213053
1914.39, 0.212270
1915.09, 0.212226
1915.8, 0.212488
1916.51, 0.212357
1917.22, 0.212226
1917.93, 0.212400
1918.64, 0.212836
1919.35, 0.214054
1920.06, 0.215055
1920.77, 0.214577
1921.48, 0.213227
1922.19, 0.212966
1922.91, 0.213314
1923.62, 0.214141
1924.33, 0.213924
1925.05, 0.213576
1925.76, 0.213793
1926.48, 0.214141
1927.19, 0.214272
1927.91, 0.214533
1928.63, 0.214577
1929.35, 0.214229
1930.07, 0.214359
1930.78, 0.214620
1931.5, 0.214620
1932.22, 0.214403
1932.94, 0.214664
1933.66, 0.215055
1934.39, 0.214968
1935.11, 0.214968
1935.83, 0.215317
1936.55, 0.215404
1937.28, 0.215317
1938.0, 0.215360
1938.73, 0.215578
1939.45, 0.215621
1940.18, 0.215491
1940.9, 0.215578
1941.63, 0.215708
1942.36, 0.215926
1943.09, 0.216013
1943.81, 0.216231
1944.54, 0.216318
1945.27, 0.216318
1946.0, 0.216231
1946.73, 0.216318
1947.47, 0.216622
1948.2, 0.216796
1948.93, 0.216709
1949.66, 0.216405
1950.4, 0.216405
1951.13, 0.216796
1951.86, 0.216840
1952.6, 0.216927
1953.34, 0.216971
1954.07, 0.216883
1954.81, 0.216971
1955.55, 0.216927
1956.29, 0.216971
1957.02, 0.217275
1957.76, 0.217449
1958.5, 0.217493
1959.24, 0.217493
1959.98, 0.217536
1960.72, 0.217536
1961.47, 0.217580
1962.21, 0.217623
1962.95, 0.217667
1963.7, 0.217972
1964.44, 0.217928
1965.18, 0.217841
1965.93, 0.218015
1966.67, 0.218059
1967.42, 0.218189
1968.17, 0.218363
1968.92, 0.218233
1969.66, 0.218276
1970.41, 0.218363
1971.16, 0.218450
1971.91, 0.218581
1972.66, 0.218668
1973.41, 0.218799
1974.16, 0.218973
1974.92, 0.219103
1975.67, 0.219016
1976.42, 0.219060
1977.18, 0.219147
