Database of Origin, USGS Spectral Database
Sample Description, See USGS database for additional info
Date Added,2016-08-10 02:57:40.858236

Data ID,USGS_hor06          
Sample ID, hornblende_hs177.10027
Mineral Name, hornblende
Material Class,Inosilicate

Wavelength
1607.49, 0.194508
1607.99, 0.194897
1608.49, 0.195285
1608.99, 0.195674
1609.49, 0.195771
1609.99, 0.196160
1610.49, 0.196305
1610.99, 0.196985
1611.49, 0.197325
1611.99, 0.197520
1612.49, 0.197568
1612.99, 0.197811
1613.49, 0.198005
1614.0, 0.198102
1614.5, 0.198248
1615.0, 0.198782
1615.51, 0.199122
1616.01, 0.199851
1616.51, 0.200288
1617.02, 0.200725
1617.52, 0.201016
1618.03, 0.201113
1618.53, 0.201113
1619.04, 0.201356
1619.54, 0.201648
1620.05, 0.201939
1620.55, 0.202133
1621.06, 0.202425
1621.57, 0.202570
1622.08, 0.202910
1622.58, 0.203250
1623.09, 0.203639
1623.6, 0.203930
1624.11, 0.204416
1624.62, 0.204562
1625.13, 0.204805
1625.64, 0.204950
1626.15, 0.205436
1626.66, 0.205824
1627.17, 0.206164
1627.68, 0.206262
1628.19, 0.206407
1628.7, 0.206601
1629.21, 0.206844
1629.72, 0.206796
1630.24, 0.207427
1630.75, 0.207718
1631.26, 0.208010
1631.78, 0.208010
1632.29, 0.208593
1632.8, 0.208787
1633.32, 0.208884
1633.83, 0.209078
1634.35, 0.209564
1634.86, 0.209661
1635.38, 0.209418
1635.9, 0.209515
1636.41, 0.210293
1636.93, 0.211118
1637.45, 0.211410
1637.96, 0.211118
1638.48, 0.211070
1639.0, 0.211167
1639.52, 0.211507
1640.04, 0.211750
1640.56, 0.212284
1641.08, 0.212527
1641.59, 0.212624
1642.11, 0.212915
1642.63, 0.213498
1643.16, 0.213595
1643.68, 0.213789
1644.2, 0.213886
1644.72, 0.214178
1645.24, 0.214469
1645.76, 0.214712
1646.29, 0.214809
1646.81, 0.215295
1647.33, 0.215683
1647.86, 0.216072
1648.38, 0.216072
1648.9, 0.216315
1649.43, 0.216752
1649.95, 0.217092
1650.48, 0.216898
1651.0, 0.217092
1651.53, 0.217723
1652.06, 0.218209
1652.58, 0.218355
1653.11, 0.218403
1653.64, 0.218452
1654.17, 0.218694
1654.69, 0.219083
1655.22, 0.219277
1655.75, 0.219132
1656.28, 0.219666
1656.81, 0.220200
1657.34, 0.220249
1657.87, 0.220200
1658.4, 0.220783
1658.93, 0.220880
1659.46, 0.220880
1659.99, 0.221171
1660.52, 0.221560
1661.05, 0.221803
1661.59, 0.222046
1662.12, 0.222483
1662.65, 0.222483
1663.19, 0.222531
1663.72, 0.222920
1664.26, 0.223163
1664.79, 0.223211
1665.32, 0.223357
1665.86, 0.223697
1666.39, 0.224085
1666.93, 0.224474
1667.47, 0.224474
1668.0, 0.224377
1668.54, 0.224571
1669.08, 0.225105
1669.61, 0.225300
1670.15, 0.225639
1670.69, 0.225639
1671.23, 0.225639
1671.77, 0.225979
1672.31, 0.226708
1672.85, 0.226999
1673.39, 0.227145
1673.93, 0.227194
1674.47, 0.227291
1675.01, 0.227291
1675.55, 0.227485
1676.09, 0.227776
1676.64, 0.228311
1677.18, 0.228505
1677.72, 0.228748
1678.26, 0.229039
1678.81, 0.229282
1679.35, 0.229331
1679.89, 0.229622
1680.44, 0.229428
1680.98, 0.229525
1681.53, 0.229719
1682.07, 0.229962
1682.62, 0.230399
1683.17, 0.230739
1683.71, 0.231273
1684.26, 0.231662
1684.81, 0.231516
1685.36, 0.231516
1685.9, 0.231856
1686.45, 0.232002
1687.0, 0.232390
1687.55, 0.232876
1688.1, 0.232584
1688.65, 0.232973
1689.2, 0.233216
1689.75, 0.233264
1690.3, 0.233167
1690.85, 0.233507
1691.41, 0.233847
1691.96, 0.234090
1692.51, 0.234333
1693.06, 0.234527
1693.61, 0.234576
1694.17, 0.234770
1694.72, 0.234964
1695.28, 0.235207
1695.83, 0.235207
1696.39, 0.235547
1696.94, 0.235838
1697.5, 0.235887
1698.05, 0.235936
1698.61, 0.236081
1699.17, 0.236276
1699.72, 0.236567
1700.28, 0.236615
1700.84, 0.236955
1701.4, 0.237393
1701.95, 0.237441
1702.51, 0.237247
1703.07, 0.237490
1703.63, 0.237587
1704.19, 0.237830
1704.75, 0.237927
1705.31, 0.238267
1705.88, 0.238704
1706.44, 0.238947
1707.0, 0.238850
1707.56, 0.239044
1708.12, 0.239092
1708.69, 0.239238
1709.25, 0.239481
1709.81, 0.239724
1710.38, 0.239918
1710.94, 0.240258
1711.51, 0.240355
1712.07, 0.240598
1712.64, 0.240695
1713.2, 0.240986
1713.77, 0.241229
1714.34, 0.241666
1714.9, 0.241958
1715.47, 0.242201
1716.04, 0.242201
1716.61, 0.242492
1717.18, 0.242638
1717.74, 0.242832
1718.31, 0.242978
1718.88, 0.242978
1719.45, 0.243075
1720.02, 0.243463
1720.59, 0.243463
1721.17, 0.243803
1721.74, 0.244143
1722.31, 0.244338
1722.88, 0.244435
1723.45, 0.244580
1724.03, 0.244678
1724.6, 0.245017
1725.18, 0.245163
1725.75, 0.245260
1726.33, 0.245649
1726.9, 0.245892
1727.48, 0.245989
1728.05, 0.246037
1728.63, 0.246280
1729.2, 0.246669
1729.78, 0.246717
1730.36, 0.246960
1730.94, 0.247057
1731.51, 0.247203
1732.09, 0.247397
1732.67, 0.247689
1733.25, 0.247883
1733.83, 0.248126
1734.41, 0.248126
1734.99, 0.248417
1735.57, 0.248660
1736.15, 0.248806
1736.73, 0.248757
1737.32, 0.248903
1737.9, 0.249048
1738.48, 0.249388
1739.07, 0.249728
1739.65, 0.250214
1740.23, 0.250457
1740.82, 0.250457
1741.4, 0.250166
1741.99, 0.250505
1742.57, 0.250943
1743.16, 0.251234
1743.74, 0.251283
1744.33, 0.251185
1744.92, 0.251331
1745.51, 0.251768
1746.09, 0.252060
1746.68, 0.252157
1747.27, 0.252205
1747.86, 0.252351
1748.45, 0.252351
1749.04, 0.252545
1749.63, 0.252691
1750.22, 0.253080
1750.81, 0.253322
1751.4, 0.253517
1751.99, 0.253565
1752.59, 0.253857
1753.18, 0.254148
1753.77, 0.254245
1754.37, 0.254197
1754.96, 0.254439
1755.56, 0.254731
1756.15, 0.254876
1756.74, 0.254925
1757.34, 0.255216
1757.94, 0.255459
1758.53, 0.255751
1759.13, 0.256091
1759.73, 0.256139
1760.32, 0.256042
1760.92, 0.256333
1761.52, 0.256333
1762.12, 0.256431
1762.72, 0.256479
1763.32, 0.256625
1763.92, 0.256819
1764.52, 0.257013
1765.12, 0.256965
1765.72, 0.257256
1766.32, 0.257499
1766.92, 0.257450
1767.53, 0.257596
1768.13, 0.257985
1768.73, 0.258325
1769.34, 0.258519
1769.94, 0.258470
1770.55, 0.258470
1771.15, 0.258616
1771.76, 0.258810
1772.36, 0.259102
1772.97, 0.259199
1773.57, 0.259102
1774.18, 0.259345
1774.79, 0.259490
1775.4, 0.259782
1776.0, 0.259830
1776.61, 0.259879
1777.22, 0.259830
1777.83, 0.260219
1778.44, 0.260510
1779.05, 0.260704
1779.66, 0.260802
1780.27, 0.261044
1780.88, 0.261142
1781.5, 0.261239
1782.11, 0.261287
1782.72, 0.261336
1783.33, 0.261676
1783.95, 0.262161
1784.56, 0.262259
1785.18, 0.262356
1785.79, 0.262453
1786.41, 0.262453
1787.02, 0.262501
1787.64, 0.262744
1788.26, 0.262938
1788.87, 0.263036
1789.49, 0.262890
1790.11, 0.263036
1790.73, 0.263376
1791.35, 0.263521
1791.96, 0.263667
1792.58, 0.263813
1793.21, 0.263861
1793.83, 0.264104
1794.45, 0.264153
1795.07, 0.264153
1795.69, 0.264347
1796.31, 0.264784
1796.93, 0.264978
1797.56, 0.265124
1798.18, 0.265221
1798.8, 0.265464
1799.43, 0.265610
1800.05, 0.265755
1800.68, 0.265901
1801.3, 0.265950
1801.93, 0.266095
1802.56, 0.266192
1803.18, 0.266290
1803.81, 0.266387
1804.44, 0.266387
1805.07, 0.266484
1805.7, 0.266872
1806.33, 0.267261
1806.95, 0.267067
1807.58, 0.267309
1808.22, 0.267552
1808.85, 0.267698
1809.48, 0.267941
1810.11, 0.268184
1810.74, 0.268087
1811.38, 0.268232
1812.01, 0.268281
1812.64, 0.268329
1813.28, 0.268669
1813.91, 0.269009
1814.55, 0.269058
1815.18, 0.269155
1815.82, 0.269252
1816.45, 0.269446
1817.09, 0.269543
1817.73, 0.269738
1818.36, 0.269738
1819.0, 0.269932
1819.64, 0.269932
1820.28, 0.269835
1820.92, 0.269981
1821.56, 0.270078
1822.2, 0.270369
1822.84, 0.270612
1823.48, 0.270855
1824.12, 0.271146
1824.76, 0.271195
1825.41, 0.271146
1826.05, 0.271195
1826.69, 0.271680
1827.34, 0.271875
1827.98, 0.271729
1828.63, 0.271778
1829.27, 0.272020
1829.92, 0.272069
1830.56, 0.272312
1831.21, 0.272409
1831.86, 0.272360
1832.5, 0.272603
1833.15, 0.272943
1833.8, 0.273040
1834.45, 0.272943
1835.1, 0.272797
1835.75, 0.272846
1836.4, 0.273235
1837.05, 0.273283
1837.7, 0.273477
1838.35, 0.273866
1839.01, 0.273575
1839.66, 0.273623
1840.31, 0.274109
1840.96, 0.274206
1841.62, 0.274012
1842.27, 0.274449
1842.93, 0.274740
1843.58, 0.274789
1844.24, 0.274934
1844.9, 0.275080
1845.55, 0.274886
1846.21, 0.274740
1846.87, 0.274594
1847.53, 0.274934
1848.18, 0.275032
1848.84, 0.275517
1849.5, 0.275760
1850.16, 0.275954
1850.82, 0.275954
1851.48, 0.275857
1852.14, 0.275517
1852.81, 0.275663
1853.47, 0.275711
1854.13, 0.276003
1854.8, 0.276343
1855.46, 0.276343
1856.12, 0.276197
1856.79, 0.276489
1857.45, 0.276828
1858.12, 0.276926
1858.79, 0.276634
1859.45, 0.276391
1860.12, 0.276634
1860.79, 0.276926
1861.46, 0.277071
1862.12, 0.277120
1862.79, 0.277217
1863.46, 0.277411
1864.13, 0.277606
1864.8, 0.277703
1865.48, 0.277703
1866.15, 0.277800
1866.82, 0.277606
1867.49, 0.277460
1868.16, 0.277654
1868.84, 0.277994
1869.51, 0.277994
1870.19, 0.277848
1870.86, 0.277751
1871.54, 0.278334
1872.21, 0.278188
1872.89, 0.278043
1873.56, 0.278480
1874.24, 0.278820
1874.92, 0.278723
1875.6, 0.279014
1876.28, 0.279014
1876.96, 0.279014
1877.64, 0.279354
1878.32, 0.279305
1879.0, 0.279402
1879.68, 0.279597
1880.36, 0.279694
1881.04, 0.279937
1881.73, 0.280082
1882.41, 0.280228
1883.09, 0.279985
1883.78, 0.279937
1884.46, 0.280228
1885.15, 0.280471
1885.83, 0.280471
1886.52, 0.280568
1887.21, 0.280617
1887.89, 0.280762
1888.58, 0.280859
1889.27, 0.280617
1889.96, 0.280568
1890.65, 0.280859
1891.34, 0.280957
1892.03, 0.281054
1892.72, 0.281054
1893.41, 0.281248
1894.1, 0.281588
1894.79, 0.281637
1895.49, 0.281782
1896.18, 0.281879
1896.87, 0.281977
1897.57, 0.282074
1898.26, 0.282219
1898.96, 0.281928
1899.65, 0.281831
1900.35, 0.282171
1901.05, 0.282268
1901.74, 0.282414
1902.44, 0.282316
1903.14, 0.282608
1903.84, 0.282851
1904.54, 0.282656
1905.24, 0.282462
1905.94, 0.282656
1906.64, 0.282948
1907.34, 0.283288
1908.04, 0.283336
1908.75, 0.283385
1909.45, 0.283482
1910.15, 0.283628
1910.86, 0.283434
1911.56, 0.283434
1912.27, 0.283676
1912.97, 0.283482
1913.68, 0.283676
1914.39, 0.284065
1915.09, 0.284113
1915.8, 0.284065
1916.51, 0.284016
1917.22, 0.284259
1917.93, 0.284502
1918.64, 0.284502
1919.35, 0.284259
1920.06, 0.284211
1920.77, 0.284405
1921.48, 0.284793
1922.19, 0.285085
1922.91, 0.285230
1923.62, 0.285182
1924.33, 0.285230
1925.05, 0.285230
1925.76, 0.285085
1926.48, 0.285036
1927.19, 0.285230
1927.91, 0.285182
1928.63, 0.285328
1929.35, 0.285328
1930.07, 0.285279
1930.78, 0.285473
1931.5, 0.285522
1932.22, 0.285570
1932.94, 0.285716
1933.66, 0.285619
1934.39, 0.285716
1935.11, 0.285910
1935.83, 0.285910
1936.55, 0.285813
1937.28, 0.285910
1938.0, 0.286153
1938.73, 0.286348
1939.45, 0.286250
1940.18, 0.286250
1940.9, 0.286348
1941.63, 0.286639
1942.36, 0.286785
1943.09, 0.286639
1943.81, 0.286396
1944.54, 0.286396
1945.27, 0.286493
1946.0, 0.286687
1946.73, 0.286785
1947.47, 0.286639
1948.2, 0.286590
1948.93, 0.286542
1949.66, 0.286639
1950.4, 0.286833
1951.13, 0.286687
1951.86, 0.286785
1952.6, 0.286687
1953.34, 0.286687
1954.07, 0.286590
1954.81, 0.286736
1955.55, 0.286785
1956.29, 0.286785
1957.02, 0.286687
1957.76, 0.286736
1958.5, 0.286785
1959.24, 0.286833
1959.98, 0.286882
1960.72, 0.286930
1961.47, 0.286930
1962.21, 0.286979
1962.95, 0.286930
1963.7, 0.286979
1964.44, 0.286833
1965.18, 0.286882
1965.93, 0.287076
1966.67, 0.287027
1967.42, 0.286882
1968.17, 0.287027
1968.92, 0.287027
1969.66, 0.287076
1970.41, 0.287027
1971.16, 0.287076
1971.91, 0.287173
1972.66, 0.287222
1973.41, 0.287125
1974.16, 0.287173
1974.92, 0.287125
1975.67, 0.286979
1976.42, 0.286979
1977.18, 0.287076
1977.93, 0.287270
1978.69, 0.287367
1979.44, 0.287222
1980.2, 0.287270
1980.95, 0.287416
1981.71, 0.287416
1982.47, 0.287319
1983.23, 0.287270
1983.99, 0.287270
1984.74, 0.287367
1985.51, 0.287465
1986.27, 0.287610
1987.03, 0.287610
1987.79, 0.287465
1988.55, 0.287416
1989.32, 0.287562
1990.08, 0.287707
1990.84, 0.287804
1991.61, 0.287659
1992.37, 0.287513
1993.14, 0.287562
1993.9, 0.287659
1994.67, 0.287707
1995.44, 0.287902
1996.21, 0.287902
1996.98, 0.287853
1997.75, 0.287707
1998.52, 0.287756
1999.29, 0.287756
2000.06, 0.287707
2000.83, 0.287756
2001.6, 0.287902
2002.38, 0.287950
2003.15, 0.287950
2003.93, 0.287853
2004.7, 0.287950
2005.48, 0.287999
2006.25, 0.288047
2007.03, 0.287999
2007.81, 0.288096
2008.58, 0.287999
2009.36, 0.288047
2010.14, 0.287999
2010.92, 0.288047
2011.7, 0.287950
2012.48, 0.287853
2013.26, 0.287804
2014.05, 0.287902
2014.83, 0.288144
2015.61, 0.288144
2016.4, 0.287950
2017.18, 0.287902
2017.97, 0.288047
2018.75, 0.288144
2019.54, 0.287999
2020.32, 0.287999
2021.11, 0.287804
2021.9, 0.287707
2022.69, 0.287804
2023.48, 0.287853
2024.27, 0.287804
2025.06, 0.287853
2025.85, 0.287853
2026.64, 0.287853
2027.44, 0.287853
2028.23, 0.287853
2029.02, 0.287659
2029.82, 0.287659
2030.61, 0.287610
2031.41, 0.287707
2032.2, 0.287707
2033.0, 0.287610
2033.8, 0.287367
2034.6, 0.287513
2035.4, 0.287416
2036.2, 0.287416
2037.0, 0.287416
2037.8, 0.287416
2038.6, 0.287319
2039.4, 0.287270
2040.2, 0.287222
2041.01, 0.287270
2041.81, 0.287270
2042.61, 0.287222
2043.42, 0.287125
2044.22, 0.287027
2045.03, 0.287027
2045.84, 0.287076
2046.65, 0.286979
2047.46, 0.286979
2048.26, 0.286979
2049.07, 0.286785
2049.88, 0.286687
2050.69, 0.286785
2051.51, 0.286590
2052.32, 0.286445
2053.13, 0.286542
2053.94, 0.286542
2054.76, 0.286348
2055.57, 0.286250
2056.39, 0.286250
2057.2, 0.286056
2058.02, 0.285959
2058.84, 0.286056
2059.66, 0.285959
2060.48, 0.285813
2061.29, 0.285716
2062.11, 0.285716
2062.94, 0.285716
2063.76, 0.285813
2064.58, 0.285813
2065.4, 0.285668
2066.22, 0.285425
2067.05, 0.285376
2067.87, 0.285230
2068.7, 0.285133
2069.52, 0.285036
2070.35, 0.284988
2071.18, 0.284939
2072.0, 0.284891
2072.83, 0.284939
2073.66, 0.284793
2074.49, 0.284648
2075.32, 0.284599
2076.15, 0.284599
2076.98, 0.284648
2077.82, 0.284405
2078.65, 0.284211
2079.48, 0.284065
2080.32, 0.284065
2081.15, 0.284016
2081.99, 0.284016
2082.83, 0.284016
2083.66, 0.283919
2084.5, 0.283676
2085.34, 0.283676
2086.18, 0.283773
2087.02, 0.283773
2087.86, 0.283434
2088.7, 0.283288
2089.54, 0.283094
2090.39, 0.283045
2091.23, 0.283142
2092.07, 0.283191
2092.92, 0.283239
2093.76, 0.283288
2094.61, 0.283191
2095.45, 0.282996
2096.3, 0.282851
2097.15, 0.282802
2098.0, 0.282754
2098.85, 0.282656
2099.7, 0.282511
2100.55, 0.282414
2101.4, 0.282462
2102.25, 0.282462
2103.1, 0.282219
2103.96, 0.282219
2104.81, 0.282268
2105.67, 0.282219
2106.52, 0.282074
2107.38, 0.282025
2108.24, 0.281977
2109.09, 0.282074
2109.95, 0.281831
2110.81, 0.281734
2111.67, 0.281734
2112.53, 0.281637
2113.39, 0.281588
2114.25, 0.281539
2115.12, 0.281442
2115.98, 0.281539
2116.84, 0.281394
2117.71, 0.281248
2118.58, 0.281151
2119.44, 0.281102
2120.31, 0.280957
2121.18, 0.280859
2122.04, 0.280859
2122.91, 0.280957
2123.78, 0.280859
2124.65, 0.280665
2125.52, 0.280568
2126.4, 0.280568
2127.27, 0.280422
2128.14, 0.280374
2129.02, 0.280180
2129.89, 0.280131
2130.77, 0.280034
2131.64, 0.280034
2132.52, 0.280082
2133.4, 0.280180
2134.27, 0.280034
2135.15, 0.280034
2136.03, 0.279937
2136.91, 0.279888
2137.79, 0.279888
2138.68, 0.279888
2139.56, 0.279840
2140.44, 0.279888
2141.33, 0.279645
2142.21, 0.279694
2143.1, 0.279597
2143.99, 0.279451
2144.87, 0.279257
2145.76, 0.279402
2146.65, 0.279500
2147.54, 0.279402
2148.43, 0.279305
2149.32, 0.279402
2150.21, 0.279354
2151.1, 0.279208
2151.99, 0.279208
2152.89, 0.279305
2153.78, 0.279257
2154.68, 0.278965
2155.57, 0.278771
2156.47, 0.278868
2157.37, 0.278820
2158.27, 0.278917
2159.16, 0.278868
2160.06, 0.278674
2160.96, 0.278480
2161.86, 0.278334
2162.77, 0.278285
2163.67, 0.278334
2164.57, 0.278285
2165.48, 0.278237
2166.38, 0.278188
2167.29, 0.278188
2168.2, 0.278140
2169.1, 0.278091
2170.01, 0.277848
2170.92, 0.277800
2171.83, 0.277848
2172.74, 0.277800
2173.65, 0.277557
2174.56, 0.277411
2175.47, 0.277363
2176.39, 0.277411
2177.3, 0.277411
2178.22, 0.277363
2179.13, 0.277168
2180.05, 0.277023
2180.96, 0.276877
2181.88, 0.276926
2182.8, 0.276926
2183.72, 0.276926
2184.64, 0.276877
2185.56, 0.276683
2186.48, 0.276537
2187.41, 0.276440
2188.33, 0.276294
2189.25, 0.276294
2190.18, 0.276246
2191.1, 0.276246
2192.03, 0.276051
2192.96, 0.276003
2193.89, 0.275954
2194.82, 0.275906
2195.74, 0.275857
2196.68, 0.275857
2197.61, 0.275906
2198.54, 0.275857
2199.47, 0.275614
2200.4, 0.275663
2201.34, 0.275517
2202.28, 0.275420
2203.21, 0.275371
2204.15, 0.275420
2205.08, 0.275371
2206.02, 0.275274
2206.96, 0.275274
2207.9, 0.275274
2208.84, 0.275177
2209.78, 0.275080
2210.73, 0.275032
2211.67, 0.275080
2212.61, 0.274983
2213.56, 0.274837
2214.5, 0.274934
2215.45, 0.275080
2216.4, 0.274886
2217.35, 0.274740
2218.3, 0.274740
2219.24, 0.274740
2220.2, 0.274497
2221.15, 0.274497
2222.1, 0.274400
2223.05, 0.274497
2224.0, 0.274449
2224.96, 0.274352
2225.91, 0.274254
2226.87, 0.274303
2227.83, 0.274206
2228.79, 0.274206
2229.74, 0.274012
2230.7, 0.273914
2231.66, 0.273720
2232.63, 0.273477
2233.59, 0.273283
2234.55, 0.273283
2235.51, 0.273089
2236.48, 0.272846
2237.44, 0.272700
2238.41, 0.272506
2239.38, 0.272069
2240.34, 0.271486
2241.31, 0.270952
2242.28, 0.270612
2243.25, 0.270175
2244.22, 0.269543
2245.19, 0.268718
2246.17, 0.268038
2247.14, 0.267261
2248.12, 0.266435
2249.09, 0.265755
2250.07, 0.265415
2251.04, 0.265027
2252.02, 0.264784
2253.0, 0.264638
2253.98, 0.264493
2254.96, 0.264298
2255.94, 0.264395
2256.92, 0.264590
2257.91, 0.264881
2258.89, 0.265075
2259.88, 0.265415
2260.86, 0.265610
2261.85, 0.265901
2262.83, 0.266047
2263.82, 0.266338
2264.81, 0.266581
2265.8, 0.266727
2266.79, 0.266727
2267.78, 0.266678
2268.78, 0.266727
2269.77, 0.266678
2270.76, 0.266727
2271.76, 0.266485
2272.75, 0.266292
2273.75, 0.266196
2274.75, 0.265714
2275.75, 0.265376
2276.75, 0.264942
2277.75, 0.264266
2278.75, 0.263687
2279.75, 0.263253
2280.75, 0.262674
2281.76, 0.261999
2282.76, 0.261082
2283.77, 0.260118
2284.77, 0.259201
2285.78, 0.258284
2286.79, 0.257320
2287.8, 0.256306
2288.81, 0.255293
2289.82, 0.254087
2290.83, 0.252978
2291.84, 0.252109
2292.86, 0.251193
2293.87, 0.249939
2294.89, 0.248781
2295.91, 0.248009
2296.92, 0.246996
2297.94, 0.245790
2298.96, 0.244873
2299.98, 0.243957
2301.0, 0.242944
2302.02, 0.242220
2303.04, 0.241786
2304.07, 0.241255
2305.09, 0.240483
2306.12, 0.239663
2307.15, 0.239277
2308.17, 0.238843
2309.2, 0.238312
2310.23, 0.237396
2311.26, 0.236672
2312.29, 0.236045
2313.32, 0.235466
2314.35, 0.234743
2315.39, 0.234357
2316.42, 0.233730
2317.46, 0.232958
2318.5, 0.232572
2319.53, 0.232331
2320.57, 0.232089
2321.61, 0.231896
2322.65, 0.231510
2323.69, 0.231317
2324.73, 0.231559
2325.78, 0.231752
2326.82, 0.231462
2327.86, 0.231510
2328.91, 0.231752
2329.96, 0.231945
2331.01, 0.232089
2332.05, 0.232186
2333.1, 0.232620
2334.15, 0.233102
2335.21, 0.233585
2336.26, 0.234115
2337.31, 0.234791
2338.36, 0.235370
2339.42, 0.235900
2340.48, 0.236479
2341.53, 0.237396
2342.59, 0.238264
2343.65, 0.238843
2344.71, 0.239374
2345.77, 0.240097
2346.83, 0.241159
2347.9, 0.241979
2348.96, 0.242702
2350.02, 0.243571
2351.09, 0.244391
2352.16, 0.244729
2353.23, 0.245356
2354.29, 0.246272
2355.36, 0.247092
2356.43, 0.247720
2357.51, 0.248250
2358.58, 0.248636
2359.65, 0.248877
2360.73, 0.249167
2361.8, 0.249408
2362.88, 0.249504
2363.96, 0.249504
2365.03, 0.249649
2366.11, 0.249649
2367.19, 0.249504
2368.27, 0.249504
2369.36, 0.249167
2370.44, 0.248684
2371.53, 0.248202
2372.61, 0.247816
2373.7, 0.247141
2374.78, 0.246465
2375.87, 0.246079
