Database of Origin, USGS Spectral Database
Sample Description, See USGS database for additional info
Date Added,2016-08-10 05:08:22.217723

Data ID,USGS_mic05          
Sample ID, microcline_hs108.13749
Mineral Name, microcline
Material Class,Tectosilicate

Wavelength
221.1, 0.195955
229.1, 0.187665
236.1, 0.178616
242.1, 0.177490
248.1, 0.184264
253.6, 0.197903
258.6, 0.215067
263.6, 0.240047
268.6, 0.265625
273.1, 0.291515
277.1, 0.314117
281.1, 0.338700
285.1, 0.360196
289.1, 0.375613
293.1, 0.389767
297.1, 0.397667
301.1, 0.405406
305.1, 0.414932
309.1, 0.416259
313.1, 0.419996
317.1, 0.427737
321.1, 0.429822
325.1, 0.431076
329.1, 0.434675
333.1, 0.437229
337.1, 0.438814
341.1, 0.438399
345.1, 0.443988
349.1, 0.442683
353.1, 0.446568
357.1, 0.445349
360.6, 0.450460
363.6, 0.448907
366.6, 0.448934
369.6, 0.451520
372.6, 0.453079
375.6, 0.451950
378.6, 0.452586
381.1, 0.452655
383.1, 0.453803
385.1, 0.452619
387.1, 0.457634
389.1, 0.458451
391.1, 0.457841
393.1, 0.461611
395.1, 0.461936
397.1, 0.460164
399.1, 0.464542
401.1, 0.466187
403.1, 0.469327
405.1, 0.468462
407.1, 0.465355
409.1, 0.469070
411.1, 0.470675
412.8, 0.473206
415.8, 0.473499
418.8, 0.476727
421.8, 0.477370
424.8, 0.479724
427.8, 0.482271
430.8, 0.485698
433.8, 0.488085
436.8, 0.489452
439.8, 0.494819
442.8, 0.496533
445.8, 0.497119
448.8, 0.502440
451.3, 0.502836
453.3, 0.506541
455.3, 0.506384
457.3, 0.509059
459.3, 0.508143
461.3, 0.508736
463.3, 0.512207
465.3, 0.513481
467.3, 0.515602
469.3, 0.519209
471.3, 0.518180
473.3, 0.520903
475.3, 0.519520
477.3, 0.524517
479.3, 0.526477
481.3, 0.527044
483.3, 0.528481
485.3, 0.528288
487.3, 0.527524
489.3, 0.532623
491.3, 0.534338
493.3, 0.531408
495.3, 0.535273
497.3, 0.539369
499.3, 0.537190
501.3, 0.539527
503.3, 0.537797
505.3, 0.541932
507.3, 0.542433
509.3, 0.544504
511.3, 0.545670
513.3, 0.547590
515.3, 0.550656
517.3, 0.547143
519.3, 0.554021
521.3, 0.552708
523.3, 0.552965
525.3, 0.554891
527.3, 0.555261
529.3, 0.557763
531.3, 0.562954
533.3, 0.562534
535.3, 0.569299
537.3, 0.570051
539.3, 0.567961
541.3, 0.573446
543.3, 0.580475
545.3, 0.579984
547.3, 0.581472
549.3, 0.591470
551.3, 0.594445
553.3, 0.597347
555.3, 0.602967
557.3, 0.609822
559.3, 0.616080
561.3, 0.620768
563.3, 0.629764
565.3, 0.632928
567.3, 0.641364
569.3, 0.649988
571.3, 0.655111
573.3, 0.660271
575.3, 0.665641
577.3, 0.677372
579.3, 0.682700
581.3, 0.686510
583.3, 0.694935
585.3, 0.694016
587.3, 0.701768
589.3, 0.705915
591.3, 0.714681
593.3, 0.718761
595.3, 0.716388
597.3, 0.720674
599.3, 0.727259
601.1, 0.727978
602.7, 0.727360
604.3, 0.727047
605.9, 0.728188
607.5, 0.727141
609.1, 0.731291
610.7, 0.735313
612.3, 0.736025
613.9, 0.736356
615.5, 0.735512
617.1, 0.735278
618.7, 0.736988
620.3, 0.740181
621.9, 0.738837
623.5, 0.735917
625.1, 0.739530
626.7, 0.737903
628.3, 0.739273
629.9, 0.737333
631.7, 0.742448
633.7, 0.740311
635.7, 0.738245
637.7, 0.741463
639.7, 0.742191
641.7, 0.745588
643.7, 0.742819
645.7, 0.739905
647.7, 0.745534
649.7, 0.744215
651.7, 0.746130
653.7, 0.748213
655.7, 0.744656
657.7, 0.747210
659.7, 0.749999
661.7, 0.750334
663.7, 0.750455
665.7, 0.749616
667.7, 0.754884
670.2, 0.752361
673.2, 0.751257
676.2, 0.755346
679.2, 0.755975
682.2, 0.756191
685.2, 0.754691
688.2, 0.760398
691.2, 0.760473
694.2, 0.761672
697.2, 0.760619
700.2, 0.764179
702.0, 0.762980
704.0, 0.763678
706.0, 0.761400
708.0, 0.763815
710.0, 0.766071
712.0, 0.767010
714.0, 0.764123
716.0, 0.765361
718.0, 0.768978
720.0, 0.767425
722.0, 0.770815
724.0, 0.770029
726.0, 0.769835
728.0, 0.772150
730.0, 0.770509
732.0, 0.772540
734.0, 0.770793
736.0, 0.776816
738.0, 0.769837
740.0, 0.773596
742.0, 0.775312
744.0, 0.777624
746.0, 0.775325
748.0, 0.772536
750.5, 0.775914
753.5, 0.776552
756.5, 0.775091
759.5, 0.775254
762.5, 0.774732
765.5, 0.777342
768.5, 0.775398
771.5, 0.774218
774.5, 0.778823
777.5, 0.777615
781.0, 0.776531
785.0, 0.780851
789.0, 0.780090
793.0, 0.782025
797.0, 0.781632
801.5, 0.778412
806.5, 0.781158
811.5, 0.777147
816.5, 0.779287
822.0, 0.776984
828.0, 0.777712
835.0, 0.778715
851.0, 0.780504
859.0, 0.778136
871.0, 0.779802
883.0, 0.777078
894.0, 0.780799
904.0, 0.776453
914.0, 0.775866
924.0, 0.781379
933.0, 0.775420
941.0, 0.781787
949.0, 0.780698
957.0, 0.779674
964.0, 0.782824
970.0, 0.778797
976.0, 0.783240
982.0, 0.780951
988.0, 0.782461
994.0, 0.778689
1000.0, 0.782735
1006.0, 0.781302
1012.0, 0.779673
1018.0, 0.780763
1023.5, 0.783985
1028.5, 0.778638
1033.5, 0.777302
1038.5, 0.778757
1043.5, 0.781910
1048.5, 0.778785
1053.5, 0.778339
1058.5, 0.781179
1063.5, 0.779308
1068.5, 0.781740
1073.5, 0.779089
1078.5, 0.780649
1083.5, 0.781331
1088.5, 0.776191
1093.5, 0.776704
1098.5, 0.776249
1103.5, 0.781312
1108.5, 0.777447
1113.5, 0.779465
1118.5, 0.777891
1123.5, 0.776592
1128.5, 0.778569
1133.5, 0.778206
1138.5, 0.775512
1143.5, 0.775899
1148.5, 0.778435
1153.5, 0.776476
1158.5, 0.779175
1163.5, 0.775940
1168.5, 0.775397
1173.5, 0.777832
1178.5, 0.777917
1183.5, 0.779301
1188.5, 0.775957
1193.5, 0.778413
1198.5, 0.775458
1203.5, 0.776949
1208.5, 0.776658
1213.5, 0.779834
1218.5, 0.774466
1223.5, 0.776265
1228.5, 0.779116
1233.5, 0.778060
1238.5, 0.777477
1243.5, 0.783947
1248.5, 0.781864
1253.5, 0.779866
1258.5, 0.779333
1263.5, 0.778919
1268.5, 0.780388
1273.5, 0.780135
1278.5, 0.781579
1283.5, 0.777658
1288.5, 0.779214
1293.5, 0.779837
1298.5, 0.779734
1303.5, 0.782588
1308.5, 0.780556
1313.5, 0.780869
1318.5, 0.780817
1323.5, 0.782876
1328.5, 0.783355
1333.5, 0.780744
1338.5, 0.777785
1343.5, 0.784399
1348.5, 0.779994
1353.5, 0.781502
1358.5, 0.778457
1363.5, 0.777677
1368.5, 0.780257
1373.5, 0.783219
1378.5, 0.785325
1383.5, 0.782506
1388.5, 0.776624
1393.5, 0.777252
1398.5, 0.777935
1403.5, 0.773303
1408.5, 0.773110
1413.5, 0.769443
1418.5, 0.771692
1423.5, 0.771082
1428.5, 0.772868
1433.5, 0.769508
1438.5, 0.770526
1443.5, 0.772378
1448.5, 0.773277
1453.5, 0.773093
1458.5, 0.775127
1463.5, 0.772269
1468.5, 0.770380
1473.5, 0.778512
1478.5, 0.773230
1483.5, 0.778468
1488.5, 0.781713
1493.5, 0.779769
1498.5, 0.778251
1503.5, 0.782118
1508.5, 0.779726
1513.5, 0.777811
1518.5, 0.778957
1523.5, 0.785578
1528.5, 0.783029
1534.0, 0.785642
1540.0, 0.786494
1546.0, 0.788691
1552.0, 0.784963
1558.0, 0.788301
1564.0, 0.788466
1570.5, 0.789319
1577.5, 0.787780
1584.5, 0.788945
1591.5, 0.790611
1598.5, 0.789341
1605.5, 0.790780
1612.5, 0.790324
1619.5, 0.792449
1626.5, 0.790386
1633.5, 0.792768
1640.5, 0.794097
1647.5, 0.791871
1654.5, 0.792841
1661.5, 0.796109
1668.5, 0.793092
1676.0, 0.796780
1684.0, 0.791019
1692.0, 0.790228
1700.0, 0.796580
1708.0, 0.793069
1716.0, 0.794397
1724.0, 0.794740
1732.0, 0.791824
1740.0, 0.795002
1748.0, 0.796312
1756.0, 0.792783
1764.0, 0.793913
1772.0, 0.795112
1780.0, 0.792699
1788.0, 0.792706
1796.0, 0.796499
1805.0, 0.796692
1815.0, 0.792740
1825.0, 0.792123
1835.0, 0.795294
1845.0, 0.793629
1855.0, 0.796944
1865.0, 0.790930
1875.0, 0.791244
1885.0, 0.779539
1895.0, 0.780276
1905.0, 0.761135
1915.0, 0.745018
1925.0, 0.736836
1935.0, 0.736556
1945.0, 0.732714
1955.0, 0.736500
1965.0, 0.740832
1975.0, 0.750258
1985.0, 0.754278
1995.0, 0.758904
2005.0, 0.763129
2015.0, 0.768611
2025.0, 0.771681
2035.0, 0.777348
2045.0, 0.784409
2055.0, 0.781849
2065.0, 0.785304
2075.0, 0.786149
2085.0, 0.788979
2095.0, 0.793945
2105.0, 0.791053
2115.0, 0.796991
2125.0, 0.792966
2135.0, 0.793436
2145.0, 0.795853
2155.0, 0.799677
2165.0, 0.790541
2175.0, 0.794451
2185.0, 0.787249
2195.0, 0.780785
2205.0, 0.778479
2215.0, 0.779457
2225.0, 0.783771
2235.0, 0.776727
2245.0, 0.783008
2255.0, 0.784117
2265.0, 0.784553
2275.0, 0.782411
2285.0, 0.779703
2295.0, 0.783894
2305.0, 0.788544
2315.0, 0.783762
2325.0, 0.784518
2335.0, 0.775733
2345.0, 0.783346
2355.0, 0.776684
2365.0, 0.777764
2375.0, 0.780137
2386.0, 0.776087
2400.0, 0.771015
2418.0, 0.768472
2440.0, 0.755618
2466.0, 0.749507
2496.0, 0.746073
2528.0, 0.732365
2560.0, 0.730706
2592.0, 0.720093
2624.0, 0.716854
2656.0, 0.697563
2688.0, 0.637324
2720.0, 0.499510
2752.0, 0.355126
2784.0, 0.269584
2816.0, 0.236953
2848.0, 0.212100
2880.0, 0.204364
2912.0, 0.169525
2944.0, 0.188859
2976.0, 0.190375
