Database of Origin,USGS Spectral Database
Sample Description,See USGS database for additional info
Date Added,2017-07-03 05:43:58.621211

Data ID,USGS_alu20          
Sample ID,alunite_res3.1507
Mineral Name,alunite
Material Class,Sulfate

Wavelength
1299.94, 0.517160
1300.26, 0.519260
1300.59, 0.531370
1300.92, 0.531160
1301.24, 0.530880
1301.57, 0.524230
1301.9, 0.525420
1302.22, 0.527170
1302.55, 0.532210
1302.88, 0.529550
1303.21, 0.528360
1303.53, 0.524930
1303.86, 0.529480
1304.19, 0.527380
1304.52, 0.531020
1304.85, 0.533540
1305.17, 0.534590
1305.5, 0.527940
1305.83, 0.527380
1306.16, 0.527030
1306.49, 0.531160
1306.82, 0.530670
1307.15, 0.535570
1307.48, 0.535500
1307.81, 0.536900
1308.14, 0.538860
1308.47, 0.542570
1308.8, 0.542290
1309.13, 0.543900
1309.46, 0.538860
1309.79, 0.542360
1310.12, 0.543130
1310.45, 0.542780
1310.79, 0.542780
1311.12, 0.547680
1311.45, 0.540750
1311.78, 0.540330
1312.11, 0.538440
1312.44, 0.538440
1312.78, 0.539210
1313.11, 0.547610
1313.44, 0.546000
1313.77, 0.545580
1314.11, 0.543270
1314.44, 0.545300
1314.77, 0.542570
1315.11, 0.544320
1315.44, 0.543480
1315.78, 0.545300
1316.11, 0.548310
1316.44, 0.549710
1316.78, 0.547750
1317.11, 0.551880
1317.45, 0.549920
1317.78, 0.556990
1318.12, 0.552300
1318.45, 0.549430
1318.79, 0.546280
1319.12, 0.547400
1319.46, 0.547120
1319.8, 0.550060
1320.13, 0.543760
1320.47, 0.544110
1320.8, 0.546420
1321.14, 0.556640
1321.48, 0.551040
1321.81, 0.549150
1322.15, 0.544880
1322.49, 0.539490
1322.83, 0.543970
1323.16, 0.557340
1323.5, 0.561190
1323.84, 0.561820
1324.18, 0.552510
1324.52, 0.554050
1324.85, 0.557130
1325.19, 0.565600
1325.53, 0.564830
1325.87, 0.557270
1326.21, 0.550900
1326.55, 0.557690
1326.89, 0.560140
1327.23, 0.566090
1327.57, 0.540470
1332.69, 0.536130
1333.03, 0.539140
1333.37, 0.557410
1333.72, 0.558530
1334.06, 0.556430
1334.4, 0.550200
1334.75, 0.546840
1335.09, 0.550620
1335.43, 0.553560
1335.78, 0.555380
1336.12, 0.560560
1336.47, 0.561820
1336.81, 0.562450
1337.16, 0.549290
1337.5, 0.550550
1337.85, 0.553490
1338.19, 0.557760
1338.54, 0.560560
1338.88, 0.563150
1339.23, 0.554400
1339.58, 0.554750
1339.92, 0.556290
1340.27, 0.559440
1340.61, 0.560630
1340.96, 0.560420
1341.31, 0.555590
1341.66, 0.560770
1342.0, 0.558600
1342.35, 0.559300
1342.7, 0.557690
1343.05, 0.558600
1343.39, 0.558740
1343.74, 0.561050
1344.09, 0.558040
1344.44, 0.562170
1344.79, 0.563710
1345.14, 0.562800
1345.48, 0.556290
1345.83, 0.557620
1346.18, 0.557970
1346.53, 0.563360
1346.88, 0.564200
1347.23, 0.561610
1347.58, 0.555940
1347.93, 0.558670
1348.28, 0.561190
1348.64, 0.563360
1348.99, 0.556990
1349.34, 0.561820
1349.69, 0.565180
1350.04, 0.565670
1350.39, 0.559160
1350.74, 0.561400
1351.1, 0.559440
1351.45, 0.562800
1351.8, 0.561610
1352.15, 0.561400
1352.51, 0.560350
1352.86, 0.566300
1353.21, 0.560770
1353.56, 0.565110
1353.92, 0.564480
1354.27, 0.565250
1354.63, 0.562520
1354.98, 0.567420
1355.33, 0.569240
1355.69, 0.568120
1356.04, 0.563500
1356.4, 0.563290
1356.75, 0.560840
1357.11, 0.563850
1357.46, 0.565600
1357.82, 0.567210
1358.18, 0.565810
1358.53, 0.570430
1358.89, 0.564690
1359.24, 0.565530
1359.6, 0.564200
1359.96, 0.565250
1360.31, 0.563150
1360.67, 0.568540
1361.03, 0.565320
1361.39, 0.563850
1361.74, 0.565950
1362.1, 0.566300
1362.46, 0.564270
1362.82, 0.566790
1363.18, 0.566370
1363.53, 0.569660
1363.89, 0.569170
1364.25, 0.570220
1364.61, 0.564410
1364.97, 0.568960
1365.33, 0.569800
1365.69, 0.569800
1366.05, 0.568890
1366.41, 0.572880
1366.77, 0.570360
1367.13, 0.571060
1367.49, 0.571340
1367.85, 0.575190
1368.21, 0.570710
1368.57, 0.566090
1368.93, 0.562660
1369.3, 0.566720
1369.66, 0.568120
1370.02, 0.570290
1370.38, 0.570290
1370.74, 0.570920
1371.11, 0.569100
1371.47, 0.569310
1371.83, 0.567140
1372.19, 0.572390
1372.56, 0.573790
1372.92, 0.574700
1373.29, 0.569730
1373.65, 0.571550
1374.01, 0.570500
1374.38, 0.569450
1374.74, 0.569590
1375.11, 0.571130
1375.47, 0.567070
1375.84, 0.572320
1376.2, 0.570570
1376.57, 0.568190
1376.93, 0.565180
1377.3, 0.570290
1377.67, 0.571970
1378.03, 0.573650
1378.4, 0.568820
1378.76, 0.566020
1379.13, 0.565250
1379.5, 0.568400
1379.87, 0.567980
1380.23, 0.568190
1380.6, 0.568820
1380.97, 0.571410
1381.34, 0.565250
1381.7, 0.565810
1382.07, 0.566860
1382.44, 0.570220
1382.81, 0.569170
1383.18, 0.570640
1383.55, 0.568190
1383.92, 0.571200
1384.29, 0.571620
1384.66, 0.573860
1385.03, 0.571970
1385.4, 0.569030
1385.77, 0.566090
1386.14, 0.570920
1386.51, 0.572530
1386.88, 0.573720
1387.25, 0.572670
1387.62, 0.570640
1387.99, 0.566930
1388.36, 0.571620
1388.74, 0.569240
1389.11, 0.569800
1389.48, 0.566790
1389.85, 0.567350
1390.23, 0.566440
1390.6, 0.569660
1390.97, 0.568470
1391.35, 0.566580
1391.72, 0.566230
1392.09, 0.568890
1392.47, 0.567000
1392.84, 0.569030
1393.21, 0.568470
1393.59, 0.569310
1393.96, 0.565880
1394.34, 0.567630
1394.71, 0.564690
1395.09, 0.565740
1395.46, 0.565250
1395.84, 0.567840
1396.22, 0.567280
1396.59, 0.569870
1396.97, 0.566020
1397.35, 0.562870
1397.72, 0.560420
1398.1, 0.563850
1398.48, 0.563080
1398.85, 0.568050
1399.23, 0.567420
1399.61, 0.568610
1399.99, 0.564480
1400.37, 0.564830
1400.74, 0.566160
1401.12, 0.566930
1401.5, 0.564270
1401.88, 0.564410
1402.26, 0.564200
1402.64, 0.569800
1403.02, 0.567630
1403.4, 0.565600
1403.78, 0.564830
1404.16, 0.567350
1404.54, 0.564340
1404.92, 0.564130
1405.3, 0.564410
1405.68, 0.565390
1406.06, 0.559860
1406.44, 0.560000
1406.83, 0.559650
1407.21, 0.561470
1407.59, 0.561610
1407.97, 0.561260
1408.35, 0.560560
1408.74, 0.562520
1409.12, 0.561120
1409.5, 0.567140
1409.89, 0.566580
1410.27, 0.565460
1410.65, 0.560840
1411.04, 0.562240
1411.42, 0.560700
1411.81, 0.561260
1412.19, 0.560280
1412.58, 0.563360
1412.96, 0.561400
1413.35, 0.560630
1413.73, 0.557970
1414.12, 0.559930
1414.5, 0.558810
1414.89, 0.556290
1415.28, 0.555170
1415.66, 0.558530
1416.05, 0.557410
1416.44, 0.558250
1416.82, 0.557340
1417.21, 0.556360
1417.6, 0.555870
1417.98, 0.558460
1418.37, 0.555100
1418.76, 0.553980
1419.15, 0.552650
1419.54, 0.551950
1419.93, 0.550550
1420.32, 0.551670
1420.71, 0.550340
1421.09, 0.553280
1421.48, 0.552650
1421.88, 0.550970
1422.27, 0.545790
1422.66, 0.547750
1423.05, 0.546630
1423.44, 0.546210
1423.83, 0.544110
1424.22, 0.545510
1424.61, 0.545720
1425.0, 0.548170
1425.39, 0.546560
1425.78, 0.544880
1426.18, 0.543130
1426.57, 0.542780
1426.96, 0.537880
1427.36, 0.539280
1427.75, 0.537740
1428.14, 0.538650
1428.54, 0.534940
1428.93, 0.533330
1429.32, 0.528220
1429.72, 0.526190
1430.11, 0.521220
1430.51, 0.519120
1430.9, 0.514640
1431.3, 0.508830
1431.69, 0.500990
1432.09, 0.498190
1432.48, 0.493500
1432.88, 0.487480
1433.28, 0.479780
1433.67, 0.474810
1434.07, 0.466970
1434.46, 0.462700
1434.86, 0.458500
1435.26, 0.452060
1435.66, 0.443310
1436.05, 0.438690
1436.45, 0.433300
1436.85, 0.435680
1437.25, 0.443030
1437.65, 0.453390
1438.05, 0.461370
1438.44, 0.469420
1438.84, 0.472640
1439.24, 0.477400
1439.64, 0.481460
1440.04, 0.483280
1440.44, 0.480480
1440.84, 0.482720
1441.24, 0.482650
1441.65, 0.483420
1442.05, 0.482510
1442.45, 0.480620
1442.85, 0.478450
1443.25, 0.477960
1443.65, 0.475160
1444.05, 0.474110
1444.46, 0.473130
1444.86, 0.477260
1445.26, 0.480340
1445.67, 0.487690
1446.07, 0.494200
1446.47, 0.500780
1446.88, 0.502600
1447.28, 0.507150
1447.68, 0.510720
1448.09, 0.514080
1448.49, 0.515130
1448.9, 0.515900
1449.3, 0.514850
1449.71, 0.520380
1450.11, 0.525140
1450.52, 0.528780
1450.93, 0.529830
1451.33, 0.534170
1451.74, 0.535570
1452.14, 0.538510
1452.55, 0.538370
1452.96, 0.539280
1453.36, 0.540960
1453.77, 0.544950
1454.18, 0.541800
1454.59, 0.541800
1455.0, 0.542570
1455.41, 0.542710
1455.81, 0.542710
1456.22, 0.542850
1456.63, 0.540890
1457.04, 0.542080
1457.45, 0.543130
1457.86, 0.544460
1458.27, 0.542850
1458.68, 0.542990
1459.09, 0.540470
1459.5, 0.541030
1459.91, 0.541450
1460.32, 0.543410
1460.74, 0.542990
1461.15, 0.543900
1461.56, 0.543620
1461.97, 0.543130
1462.39, 0.541730
1462.8, 0.542150
1463.21, 0.537810
1463.62, 0.536130
1464.04, 0.536200
1464.45, 0.537880
1464.86, 0.535430
1465.28, 0.538020
1465.69, 0.539070
1466.11, 0.539490
1466.52, 0.538650
1466.94, 0.541310
1467.35, 0.538790
1467.77, 0.535850
1468.18, 0.533960
1468.6, 0.533470
1469.02, 0.530320
1469.43, 0.530320
1469.85, 0.529690
1470.27, 0.529620
1470.68, 0.527030
1471.1, 0.528150
1471.52, 0.526890
1471.94, 0.530530
1472.35, 0.527520
1472.77, 0.528360
1473.19, 0.531650
1473.61, 0.528010
1474.03, 0.529200
1474.45, 0.529760
1474.87, 0.523040
1475.29, 0.518630
1475.71, 0.518630
1476.13, 0.517860
1476.55, 0.515270
1476.97, 0.517790
1477.39, 0.519610
1477.81, 0.518350
1478.23, 0.523950
1478.65, 0.525280
1479.07, 0.515900
1479.5, 0.518070
1479.92, 0.524440
1480.34, 0.525140
1480.76, 0.519050
1481.19, 0.519540
1481.61, 0.528710
1482.03, 0.539280
1482.46, 0.539350
1482.88, 0.530600
1483.31, 0.519540
1483.73, 0.518140
1484.16, 0.520380
1484.58, 0.526190
1485.01, 0.525910
1485.43, 0.524370
1485.86, 0.521080
1486.28, 0.522970
1486.71, 0.521570
1487.14, 0.520240
1487.56, 0.521220
1487.99, 0.520380
1488.42, 0.512260
1488.84, 0.506940
1489.27, 0.501200
1489.7, 0.503230
1490.13, 0.497560
1490.56, 0.491050
1490.98, 0.487060
1491.41, 0.484610
1491.84, 0.479500
1492.27, 0.472010
1492.7, 0.465080
1493.13, 0.455980
1493.56, 0.444500
1493.99, 0.439390
1494.42, 0.432390
1494.85, 0.426650
1495.29, 0.421890
1495.72, 0.420000
1496.15, 0.420140
1496.58, 0.424410
1497.01, 0.425530
1497.44, 0.429940
1497.88, 0.437710
1498.31, 0.449540
1498.74, 0.458570
1499.18, 0.467950
1499.61, 0.478590
1500.04, 0.488040
1500.48, 0.495180
1500.91, 0.503720
1501.35, 0.510020
1501.78, 0.515830
1502.22, 0.519540
1502.65, 0.525000
1503.09, 0.529200
1503.53, 0.532770
1503.96, 0.535010
1504.4, 0.539070
1504.83, 0.541030
1505.27, 0.542640
1505.71, 0.542780
1506.15, 0.544810
1506.58, 0.546700
1507.02, 0.548100
1507.46, 0.547610
1507.9, 0.550900
1508.34, 0.551250
1508.78, 0.552580
1509.21, 0.554400
1509.66, 0.555940
1510.09, 0.553910
1510.53, 0.554750
1510.97, 0.553980
1511.42, 0.553910
1511.86, 0.552790
1512.3, 0.552860
1512.74, 0.551740
1513.18, 0.551740
1513.62, 0.550340
1514.06, 0.552370
1514.51, 0.551880
1514.95, 0.552370
1515.39, 0.551180
1515.83, 0.551810
1516.28, 0.552720
1516.72, 0.552650
1517.16, 0.550620
1517.61, 0.552930
1518.05, 0.554890
1518.5, 0.556780
1518.94, 0.556010
1519.39, 0.556850
1519.83, 0.556850
1520.28, 0.556640
1520.73, 0.556080
1521.17, 0.556080
1521.62, 0.556080
1522.07, 0.558530
1522.51, 0.558950
1522.96, 0.559930
1523.41, 0.561470
1523.85, 0.562940
1524.3, 0.560350
1524.75, 0.563010
1525.2, 0.564760
1525.65, 0.565460
1526.1, 0.565740
1526.55, 0.567420
1527.0, 0.567630
1527.45, 0.567770
1527.9, 0.566580
1528.35, 0.568750
1528.8, 0.570360
1529.25, 0.572250
1529.7, 0.572390
1530.15, 0.573650
1530.6, 0.572740
1531.05, 0.573020
1531.51, 0.573090
1531.96, 0.574420
1532.41, 0.574280
1532.87, 0.574840
1533.32, 0.574490
1533.77, 0.576660
1534.23, 0.577220
1534.68, 0.577640
1535.14, 0.575750
1535.59, 0.577010
1536.05, 0.579530
1536.5, 0.581490
1536.96, 0.581280
1537.41, 0.582820
1537.87, 0.581280
1538.32, 0.581840
1538.78, 0.582260
1539.24, 0.584010
1539.7, 0.583450
1540.15, 0.583030
1540.61, 0.582120
1541.07, 0.583310
1541.53, 0.582540
1541.98, 0.581840
1542.44, 0.581630
1542.9, 0.582890
1543.36, 0.583100
1543.82, 0.583590
1544.28, 0.582680
1544.74, 0.582330
1545.2, 0.581070
1545.66, 0.582260
1546.12, 0.584710
1546.59, 0.585620
1547.05, 0.584290
1547.51, 0.583590
1547.97, 0.582470
1548.43, 0.583100
1548.9, 0.581910
1549.36, 0.583030
1549.82, 0.583310
1550.29, 0.583940
1550.75, 0.583100
1551.21, 0.584220
1551.68, 0.583870
1552.14, 0.583940
1552.61, 0.583170
1553.07, 0.582960
1553.54, 0.581700
1554.0, 0.583100
1554.47, 0.582820
1554.93, 0.584010
1555.4, 0.583660
1555.87, 0.584780
1556.34, 0.584080
1556.8, 0.584430
1557.27, 0.584360
1557.74, 0.583520
1558.21, 0.583940
1558.68, 0.585270
1559.14, 0.583450
1559.61, 0.586180
1560.08, 0.587790
1560.55, 0.588630
1561.02, 0.587930
1561.49, 0.586740
1561.96, 0.586180
1562.43, 0.588630
1562.9, 0.588560
1563.38, 0.589610
1563.85, 0.587510
1564.32, 0.588140
1564.79, 0.587720
1565.26, 0.589050
1565.74, 0.588420
1566.21, 0.588490
1566.68, 0.587580
1567.16, 0.588000
1567.63, 0.588770
1568.1, 0.589680
1568.58, 0.589610
1569.05, 0.590030
1569.53, 0.589120
1570.0, 0.590100
1570.48, 0.590870
1570.96, 0.591360
1571.43, 0.590030
1571.91, 0.590870
1572.39, 0.589540
1572.86, 0.590590
1573.34, 0.590800
1573.82, 0.592200
1574.3, 0.591430
1574.77, 0.592690
1575.25, 0.592060
1575.73, 0.591710
1576.21, 0.590520
1576.69, 0.591990
1577.17, 0.592270
1577.65, 0.592480
1578.13, 0.593180
1578.61, 0.594300
1579.09, 0.591780
1579.57, 0.591080
1580.05, 0.590310
1580.54, 0.591710
1581.02, 0.591640
1581.5, 0.592410
1581.98, 0.592060
1582.47, 0.593110
1582.95, 0.592550
1583.43, 0.593740
1583.92, 0.594510
1584.4, 0.595490
1584.88, 0.593740
1585.37, 0.592760
1585.85, 0.592340
1586.34, 0.594440
1586.82, 0.594370
1587.31, 0.593600
1587.8, 0.592760
1588.28, 0.593670
1588.77, 0.592900
1589.26, 0.594160
1589.74, 0.594580
1590.23, 0.595000
1590.72, 0.594370
1591.21, 0.595700
1591.7, 0.595420
1592.19, 0.594860
1592.67, 0.593600
1593.16, 0.594370
1593.65, 0.593880
1594.14, 0.595350
1594.63, 0.594930
1595.12, 0.594370
1595.61, 0.593950
1596.11, 0.595140
1596.6, 0.595490
1597.09, 0.596470
1597.58, 0.596050
1598.08, 0.595070
1598.57, 0.595560
1599.06, 0.597030
1599.55, 0.597100
1600.05, 0.597660
1600.54, 0.596820
1601.04, 0.597030
1601.53, 0.596400
1602.03, 0.596750
1602.52, 0.596050
1603.02, 0.596960
1603.51, 0.596960
1604.01, 0.597100
1604.5, 0.595910
1605.0, 0.596330
1605.5, 0.596330
1606.0, 0.597240
1606.49, 0.596330
1606.99, 0.596680
1607.49, 0.597800
1607.99, 0.598430
1608.49, 0.597380
1608.99, 0.597870
1609.49, 0.597030
1609.99, 0.597450
1610.49, 0.597450
1610.99, 0.597940
1611.49, 0.596890
1611.99, 0.597730
1612.49, 0.598290
1612.99, 0.597730
1613.49, 0.596540
1614.0, 0.597660
1614.5, 0.597730
1615.0, 0.598430
1615.51, 0.598780
1616.01, 0.599830
1616.51, 0.599060
1617.02, 0.599900
1617.52, 0.598570
1618.03, 0.599270
1618.53, 0.599760
1619.04, 0.599200
1619.54, 0.597730
1620.05, 0.598920
1620.55, 0.598080
1621.06, 0.598080
1621.57, 0.597660
1622.08, 0.598640
1622.58, 0.599130
1623.09, 0.600040
1623.6, 0.599760
1624.11, 0.600810
1624.62, 0.600390
1625.13, 0.600110
1625.64, 0.599550
1626.15, 0.599900
1626.66, 0.599480
1627.17, 0.601860
1627.68, 0.602490
1628.19, 0.601790
1628.7, 0.600110
1629.21, 0.601370
1629.72, 0.600110
1630.24, 0.599480
1630.75, 0.598780
1631.26, 0.600320
1631.78, 0.600880
1632.29, 0.600950
1632.8, 0.600040
1633.32, 0.600810
1633.83, 0.600600
1634.35, 0.600950
1634.86, 0.600530
1635.38, 0.600530
1635.9, 0.600040
1636.41, 0.600180
1636.93, 0.601090
1637.45, 0.601440
1637.96, 0.600180
1638.48, 0.600250
1639.0, 0.599410
1639.52, 0.599900
1640.04, 0.600950
1640.56, 0.601860
1641.08, 0.600460
1641.59, 0.600110
1642.11, 0.599690
1642.63, 0.600040
1643.16, 0.600390
1643.68, 0.601650
1644.2, 0.600530
1644.72, 0.599830
1645.24, 0.599480
1645.76, 0.600110
1646.29, 0.599690
1646.81, 0.600880
1647.33, 0.600390
1647.86, 0.600950
1648.38, 0.600740
1648.9, 0.601020
1649.43, 0.600880
1649.95, 0.601580
1650.48, 0.599760
1651.0, 0.599830
1651.53, 0.599830
1652.06, 0.601860
1652.58, 0.602560
1653.11, 0.602490
1653.64, 0.600880
1654.17, 0.600810
1654.69, 0.600460
1655.22, 0.599760
1655.75, 0.599550
1656.28, 0.599340
1656.81, 0.598080
1657.34, 0.599130
1657.87, 0.599900
1658.4, 0.601020
1658.93, 0.600460
1659.46, 0.600530
1659.99, 0.599970
1660.52, 0.599200
1661.05, 0.599270
1661.59, 0.600390
1662.12, 0.600110
1662.65, 0.599340
1663.19, 0.598850
1663.72, 0.598710
1664.26, 0.598640
1664.79, 0.600600
1665.32, 0.600390
1665.86, 0.599270
1666.39, 0.598920
1666.93, 0.600320
1667.47, 0.599480
1668.0, 0.599830
1668.54, 0.599130
1669.08, 0.598990
1669.61, 0.598990
1670.15, 0.599830
1670.69, 0.598360
1671.23, 0.598570
1671.77, 0.598570
1672.31, 0.598780
1672.85, 0.598710
1673.39, 0.598500
1673.93, 0.599340
1674.47, 0.600250
1675.01, 0.598640
1675.55, 0.597870
1676.09, 0.597380
1676.64, 0.597730
1677.18, 0.598150
1677.72, 0.598710
1678.26, 0.597590
1678.81, 0.597660
1679.35, 0.597380
1679.89, 0.597590
1680.44, 0.597660
1680.98, 0.598710
1681.53, 0.598290
1682.07, 0.598850
1682.62, 0.598150
1683.17, 0.597660
1683.71, 0.597520
1684.26, 0.597100
1684.81, 0.596260
1685.36, 0.597310
1685.9, 0.596960
1686.45, 0.597310
1687.0, 0.597660
1687.55, 0.598010
1688.1, 0.596470
1688.65, 0.596260
1689.2, 0.596400
1689.75, 0.597240
1690.3, 0.596540
1690.85, 0.596680
1691.41, 0.596120
1691.96, 0.596330
1692.51, 0.595420
1693.06, 0.595840
1693.61, 0.595840
1694.17, 0.595980
1694.72, 0.595700
1695.28, 0.596330
1695.83, 0.596190
1696.39, 0.595840
1696.94, 0.594650
1697.5, 0.594370
1698.05, 0.593810
1698.61, 0.594230
1699.17, 0.594090
1699.72, 0.594650
1700.28, 0.594230
1700.84, 0.594440
1701.4, 0.593320
1701.95, 0.593810
1702.51, 0.593250
1703.07, 0.594650
1703.63, 0.594230
1704.19, 0.593320
1704.75, 0.591990
1705.31, 0.592060
1705.88, 0.592410
1706.44, 0.593460
1707.0, 0.592480
1707.56, 0.592130
1708.12, 0.591850
1708.69, 0.591430
1709.25, 0.590030
1709.81, 0.590100
1710.38, 0.589610
1710.94, 0.588980
1711.51, 0.588000
1712.07, 0.587930
1712.64, 0.587510
1713.2, 0.588280
1713.77, 0.587440
1714.34, 0.586740
1714.9, 0.586950
1715.47, 0.586950
1716.04, 0.585760
1716.61, 0.585060
1717.18, 0.583590
1717.74, 0.582680
1718.31, 0.582120
1718.88, 0.581910
1719.45, 0.581560
1720.02, 0.581420
1720.59, 0.580300
1721.17, 0.579880
1721.74, 0.577850
1722.31, 0.577780
1722.88, 0.577360
1723.45, 0.576730
1724.03, 0.575540
1724.6, 0.574210
1725.18, 0.572880
1725.75, 0.572740
1726.33, 0.572180
1726.9, 0.571270
1727.48, 0.569170
1728.05, 0.568260
1728.63, 0.567420
1729.2, 0.566230
1729.78, 0.563990
1730.36, 0.563850
1730.94, 0.563640
1731.51, 0.562450
1732.09, 0.560350
1732.67, 0.559300
1733.25, 0.558180
1733.83, 0.557410
1734.41, 0.555800
1734.99, 0.555100
1735.57, 0.554260
1736.15, 0.553210
1736.73, 0.551880
1737.32, 0.551110
1737.9, 0.550130
1738.48, 0.549010
1739.07, 0.547400
1739.65, 0.547260
1740.23, 0.546560
1740.82, 0.545510
1741.4, 0.544040
1741.99, 0.543410
1742.57, 0.542080
1743.16, 0.540890
1743.74, 0.539140
1744.33, 0.538230
1744.92, 0.537530
1745.51, 0.536200
1746.09, 0.534520
1746.68, 0.532770
1747.27, 0.530950
1747.86, 0.530040
1748.45, 0.529200
1749.04, 0.529410
1749.63, 0.528360
1750.22, 0.527450
1750.81, 0.526330
1751.4, 0.526400
1751.99, 0.525630
1752.59, 0.524860
1753.18, 0.523740
1753.77, 0.522830
1754.37, 0.521360
1754.96, 0.521150
1755.56, 0.520450
1756.15, 0.520030
1756.74, 0.519750
1757.34, 0.519680
1757.94, 0.519820
1758.53, 0.520100
1759.13, 0.519400
1759.73, 0.520030
1760.32, 0.520450
1760.92, 0.520520
1761.52, 0.520800
1762.12, 0.520030
1762.72, 0.518980
1763.32, 0.519050
1763.92, 0.518350
1764.52, 0.518840
1765.12, 0.518910
1765.72, 0.518000
1766.32, 0.517160
1766.92, 0.516530
1767.53, 0.516460
1768.13, 0.516600
1768.73, 0.516320
