Database of Origin,USGS Spectral Database
Sample Description,See USGS database for additional info
Date Added,2017-07-03 05:41:55.175146

Data ID,USGS_pro05          
Sample ID,prochlorite_smr14.18351
Mineral Name,prochlorite
Material Class,Phyllosilicate

Wavelength
1299.94, 0.0952560
1300.26, 0.0964320
1300.59, 0.0979610
1300.92, 0.0984900
1301.24, 0.0988430
1301.57, 0.0991370
1301.9, 0.0996660
1302.22, 0.100842
1302.55, 0.101254
1302.88, 0.101371
1303.21, 0.102312
1303.53, 0.103018
1303.86, 0.103958
1304.19, 0.105017
1304.52, 0.105428
1304.85, 0.105605
1305.17, 0.106840
1305.5, 0.107839
1305.83, 0.108545
1306.16, 0.108662
1306.49, 0.108898
1306.82, 0.110544
1307.15, 0.112073
1307.48, 0.112720
1307.81, 0.113249
1308.14, 0.113014
1308.47, 0.113425
1308.8, 0.114719
1309.13, 0.115248
1309.46, 0.115660
1309.79, 0.116365
1310.12, 0.116365
1310.45, 0.116953
1310.79, 0.117482
1311.12, 0.118070
1311.45, 0.119188
1311.78, 0.119540
1312.11, 0.120128
1312.44, 0.121246
1312.78, 0.121363
1313.11, 0.121951
1313.44, 0.122716
1313.77, 0.123539
1314.11, 0.124009
1314.44, 0.124127
1314.77, 0.124480
1315.11, 0.125597
1315.44, 0.125773
1315.78, 0.126008
1316.11, 0.126832
1316.44, 0.127478
1316.78, 0.127772
1317.11, 0.128184
1317.45, 0.128478
1317.78, 0.128948
1318.12, 0.129889
1318.45, 0.130830
1318.79, 0.131477
1319.12, 0.131594
1319.46, 0.132241
1319.8, 0.132712
1320.13, 0.132947
1320.47, 0.133946
1320.8, 0.134299
1321.14, 0.134887
1321.48, 0.134828
1321.81, 0.135005
1322.15, 0.136357
1322.49, 0.136710
1322.83, 0.136710
1323.16, 0.137533
1323.5, 0.138415
1323.84, 0.139532
1324.18, 0.140003
1324.52, 0.140414
1324.85, 0.141061
1325.19, 0.140826
1325.53, 0.140473
1325.87, 0.140356
1326.21, 0.140532
1326.55, 0.141414
1326.89, 0.142884
1327.23, 0.143237
1327.57, 0.142825
1327.91, 0.143002
1328.25, 0.144001
1328.59, 0.144648
1328.93, 0.144707
1329.27, 0.144824
1329.61, 0.145354
1329.95, 0.146118
1330.29, 0.146941
1330.64, 0.147412
1330.98, 0.147294
1331.32, 0.147353
1331.66, 0.148705
1332.0, 0.148999
1332.34, 0.148705
1332.69, 0.148999
1333.03, 0.149176
1333.37, 0.149293
1333.72, 0.149764
1334.06, 0.150293
1334.4, 0.151292
1334.75, 0.152468
1335.09, 0.152351
1335.43, 0.152174
1335.78, 0.152057
1336.12, 0.152174
1336.47, 0.152939
1336.81, 0.153821
1337.16, 0.154409
1337.5, 0.154350
1337.85, 0.153938
1338.19, 0.154997
1338.54, 0.155644
1338.88, 0.155467
1339.23, 0.155467
1339.58, 0.155761
1339.92, 0.156055
1340.27, 0.156173
1340.61, 0.156584
1340.96, 0.156996
1341.31, 0.157172
1341.66, 0.157525
1342.0, 0.157996
1342.35, 0.158348
1342.7, 0.158819
1343.05, 0.159407
1343.39, 0.159936
1343.74, 0.159583
1344.09, 0.158995
1344.44, 0.159524
1344.79, 0.160465
1345.14, 0.160289
1345.48, 0.160642
1345.83, 0.161288
1346.18, 0.162170
1346.53, 0.162700
1346.88, 0.162229
1347.23, 0.162053
1347.58, 0.162347
1347.93, 0.162994
1348.28, 0.163170
1348.64, 0.163523
1348.99, 0.163582
1349.34, 0.163876
1349.69, 0.163876
1350.04, 0.163876
1350.39, 0.164052
1350.74, 0.164758
1351.1, 0.165110
1351.45, 0.164875
1351.8, 0.164993
1352.15, 0.165346
1352.51, 0.165640
1352.86, 0.165816
1353.21, 0.165934
1353.56, 0.166051
1353.92, 0.166110
1354.27, 0.166580
1354.63, 0.167051
1354.98, 0.166933
1355.33, 0.167051
1355.69, 0.167639
1356.04, 0.167992
1356.4, 0.168050
1356.75, 0.168227
1357.11, 0.168109
1357.46, 0.167992
1357.82, 0.168168
1358.18, 0.168168
1358.53, 0.168286
1358.89, 0.168991
1359.24, 0.169520
1359.6, 0.169344
1359.96, 0.169050
1360.31, 0.169462
1360.67, 0.169932
1361.03, 0.170344
1361.39, 0.170520
1361.74, 0.170814
1362.1, 0.171343
1362.46, 0.170990
1362.82, 0.170814
1363.18, 0.170814
1363.53, 0.170755
1363.89, 0.171049
1364.25, 0.171578
1364.61, 0.171637
1364.97, 0.171226
1365.33, 0.171167
1365.69, 0.171814
1366.05, 0.172578
1366.41, 0.172225
1366.77, 0.172166
1367.13, 0.172166
1367.49, 0.172578
1367.85, 0.172931
1368.21, 0.173225
1368.57, 0.173519
1368.93, 0.173342
1369.3, 0.173166
1369.66, 0.173578
1370.02, 0.173636
1370.38, 0.173813
1370.74, 0.174460
1371.11, 0.174342
1371.47, 0.174224
1371.83, 0.174401
1372.19, 0.174577
1372.56, 0.174518
1372.92, 0.174695
1373.29, 0.174871
1373.65, 0.174989
1374.01, 0.174812
1374.38, 0.174695
1374.74, 0.174871
1375.11, 0.175342
1375.47, 0.175518
1375.84, 0.175694
1376.2, 0.176165
1376.57, 0.176635
1376.93, 0.176224
1377.3, 0.176106
1377.67, 0.176341
1378.03, 0.176459
1378.4, 0.176106
1378.76, 0.176047
1379.13, 0.176282
1379.5, 0.176812
1379.87, 0.177517
1380.23, 0.178399
1380.6, 0.178634
1380.97, 0.177811
1381.34, 0.177341
1381.7, 0.177517
1382.07, 0.178164
1382.44, 0.178634
1382.81, 0.178340
1383.18, 0.178046
1383.55, 0.178399
1383.92, 0.178517
1384.29, 0.178223
1384.66, 0.178399
1385.03, 0.178634
1385.4, 0.178340
1385.77, 0.178164
1386.14, 0.177752
1386.51, 0.177400
1386.88, 0.177694
1387.25, 0.177458
1387.62, 0.177223
1387.99, 0.177400
1388.36, 0.176988
1388.74, 0.176400
1389.11, 0.175636
1389.48, 0.175165
1389.85, 0.174930
1390.23, 0.174930
1390.6, 0.174754
1390.97, 0.174930
1391.35, 0.174460
1391.72, 0.174224
1392.09, 0.174695
1392.47, 0.174636
1392.84, 0.174048
1393.21, 0.173813
1393.59, 0.173989
1393.96, 0.173578
1394.34, 0.173519
1394.71, 0.173695
1395.09, 0.173578
1395.46, 0.173813
1395.84, 0.174048
1396.22, 0.173813
1396.59, 0.173342
1396.97, 0.173460
1397.35, 0.173930
1397.72, 0.174048
1398.1, 0.173813
1398.48, 0.174107
1398.85, 0.174636
1399.23, 0.174989
1399.61, 0.174989
1399.99, 0.174989
1400.37, 0.175459
1400.74, 0.175459
1401.12, 0.175400
1401.5, 0.175224
1401.88, 0.175165
1402.26, 0.175342
1402.64, 0.175694
1403.02, 0.175930
1403.4, 0.175988
1403.78, 0.175930
1404.16, 0.175812
1404.54, 0.176106
1404.92, 0.176518
1405.3, 0.176106
1405.68, 0.175694
1406.06, 0.175753
1406.44, 0.176224
1406.83, 0.176518
1407.21, 0.176929
1407.59, 0.177106
1407.97, 0.177047
1408.35, 0.177106
1408.74, 0.177752
1409.12, 0.178223
1409.5, 0.178105
1409.89, 0.178105
1410.27, 0.178458
1410.65, 0.178340
1411.04, 0.178399
1411.42, 0.178634
1411.81, 0.178928
1412.19, 0.179340
1412.58, 0.179575
1412.96, 0.179281
1413.35, 0.179105
1413.73, 0.179281
1414.12, 0.179693
1414.5, 0.179987
1414.89, 0.180163
1415.28, 0.180281
1415.66, 0.180692
1416.05, 0.180986
1416.44, 0.180928
1416.82, 0.181280
1417.21, 0.181868
1417.6, 0.182221
1417.98, 0.182339
1418.37, 0.182339
1418.76, 0.182633
1419.15, 0.182633
1419.54, 0.182692
1419.93, 0.182986
1420.32, 0.183280
1420.71, 0.183280
1421.09, 0.183338
1421.48, 0.183632
1421.88, 0.183809
1422.27, 0.184103
1422.66, 0.184279
1423.05, 0.184220
1423.44, 0.183868
1423.83, 0.183985
1424.22, 0.184162
1424.61, 0.184103
1425.0, 0.184220
1425.39, 0.184220
1425.78, 0.184456
1426.18, 0.184867
1426.57, 0.185220
1426.96, 0.185338
1427.36, 0.185396
1427.75, 0.185396
1428.14, 0.185338
1428.54, 0.185161
1428.93, 0.185044
1429.32, 0.185161
1429.72, 0.185338
1430.11, 0.185749
1430.51, 0.186043
1430.9, 0.185867
1431.3, 0.185514
1431.69, 0.185749
1432.09, 0.186102
1432.48, 0.185867
1432.88, 0.185984
1433.28, 0.186043
1433.67, 0.185984
1434.07, 0.186102
1434.46, 0.186102
1434.86, 0.186102
1435.26, 0.186396
1435.66, 0.186690
1436.05, 0.186925
1436.45, 0.186631
1436.85, 0.186514
1437.25, 0.186396
1437.65, 0.186514
1438.05, 0.186984
1438.44, 0.187102
1438.84, 0.186808
1439.24, 0.187043
1439.64, 0.187337
1440.04, 0.187278
1440.44, 0.187454
1440.84, 0.187513
1441.24, 0.187513
1441.65, 0.187454
1442.05, 0.187513
1442.45, 0.187572
1442.85, 0.187396
1443.25, 0.187102
1443.65, 0.187690
1444.05, 0.188101
1444.46, 0.187984
1444.86, 0.187925
1445.26, 0.187925
1445.67, 0.188395
1446.07, 0.188630
1446.47, 0.188395
1446.88, 0.188219
1447.28, 0.188689
1447.68, 0.188983
1448.09, 0.189042
1448.49, 0.188630
1448.9, 0.188454
1449.3, 0.188572
1449.71, 0.188866
1450.11, 0.189042
1450.52, 0.189395
1450.93, 0.189336
1451.33, 0.189512
1451.74, 0.189865
1452.14, 0.189630
1452.55, 0.189571
1452.96, 0.189630
1453.36, 0.189924
1453.77, 0.190100
1454.18, 0.190159
1454.59, 0.190512
1455.0, 0.190688
1455.41, 0.190277
1455.81, 0.190394
1456.22, 0.190806
1456.63, 0.191041
1457.04, 0.190806
1457.45, 0.190924
1457.86, 0.191218
1458.27, 0.191335
1458.68, 0.191453
1459.09, 0.191629
1459.5, 0.191747
1459.91, 0.191864
1460.32, 0.191982
1460.74, 0.192100
1461.15, 0.192100
1461.56, 0.191923
1461.97, 0.191806
1462.39, 0.191982
1462.8, 0.192276
1463.21, 0.192335
1463.62, 0.192452
1464.04, 0.192688
1464.45, 0.192923
1464.86, 0.193040
1465.28, 0.193158
1465.69, 0.193393
1466.11, 0.193687
1466.52, 0.193628
1466.94, 0.193570
1467.35, 0.193570
1467.77, 0.193864
1468.18, 0.194158
1468.6, 0.194040
1469.02, 0.193864
1469.43, 0.194040
1469.85, 0.194452
1470.27, 0.194510
1470.68, 0.194393
1471.1, 0.194628
1471.52, 0.195098
1471.94, 0.195334
1472.35, 0.195510
1472.77, 0.195569
1473.19, 0.195334
1473.61, 0.195275
1474.03, 0.195451
1474.45, 0.196216
1474.87, 0.196627
1475.29, 0.196627
1475.71, 0.196745
1476.13, 0.196745
1476.55, 0.196686
1476.97, 0.196686
1477.39, 0.196392
1477.81, 0.196451
1478.23, 0.196568
1478.65, 0.196921
1479.07, 0.197274
1479.5, 0.197215
1479.92, 0.197686
1480.34, 0.197921
1480.76, 0.197744
1481.19, 0.198038
1481.61, 0.198038
1482.03, 0.197980
1482.46, 0.197921
1482.88, 0.198097
1483.31, 0.198215
1483.73, 0.198509
1484.16, 0.198332
1484.58, 0.198685
1485.01, 0.199332
1485.43, 0.199097
1485.86, 0.198744
1486.28, 0.199038
1486.71, 0.199450
1487.14, 0.199802
1487.56, 0.199861
1487.99, 0.199861
1488.42, 0.199802
1488.84, 0.200038
1489.27, 0.200214
1489.7, 0.200332
1490.13, 0.200449
1490.56, 0.200508
1490.98, 0.200390
1491.41, 0.200449
1491.84, 0.200626
1492.27, 0.200861
1492.7, 0.201037
1493.13, 0.201214
1493.56, 0.201214
1493.99, 0.201155
1494.42, 0.201272
1494.85, 0.201743
1495.29, 0.201919
1495.72, 0.201802
1496.15, 0.201566
1496.58, 0.201919
1497.01, 0.202331
1497.44, 0.202331
1497.88, 0.202331
1498.31, 0.202625
1498.74, 0.202860
1499.18, 0.203095
1499.61, 0.203330
1500.04, 0.203389
1500.48, 0.203213
1500.91, 0.203154
1501.35, 0.203272
1501.78, 0.203330
1502.22, 0.203507
1502.65, 0.203742
1503.09, 0.203918
1503.53, 0.203742
1503.96, 0.203683
1504.4, 0.204095
1504.83, 0.204095
1505.27, 0.204212
1505.71, 0.204506
1506.15, 0.204565
1506.58, 0.204683
1507.02, 0.204977
1507.46, 0.205330
1507.9, 0.205330
1508.34, 0.205153
1508.78, 0.205153
1509.21, 0.205388
1509.66, 0.205800
1510.09, 0.205976
1510.53, 0.206035
1510.97, 0.205918
1511.42, 0.206035
1511.86, 0.206212
1512.3, 0.206329
1512.74, 0.206447
1513.18, 0.206564
1513.62, 0.206623
1514.06, 0.206506
1514.51, 0.206388
1514.95, 0.206506
1515.39, 0.206623
1515.83, 0.206741
1516.28, 0.207094
1516.72, 0.207505
1517.16, 0.207446
1517.61, 0.207152
1518.05, 0.207094
1518.5, 0.207270
1518.94, 0.207623
1519.39, 0.207740
1519.83, 0.207799
1520.28, 0.208093
1520.73, 0.208211
1521.17, 0.208270
1521.62, 0.208328
1522.07, 0.208505
1522.51, 0.208799
1522.96, 0.209034
1523.41, 0.208799
1523.85, 0.208858
1524.3, 0.209210
1524.75, 0.209093
1525.2, 0.208975
1525.65, 0.209152
1526.1, 0.209446
1526.55, 0.209681
1527.0, 0.209798
1527.45, 0.209857
1527.9, 0.210092
1528.35, 0.210386
1528.8, 0.210386
1529.25, 0.210445
1529.7, 0.210680
1530.15, 0.210974
1530.6, 0.210974
1531.05, 0.210857
1531.51, 0.210857
1531.96, 0.210857
1532.41, 0.210974
1532.87, 0.211327
1533.32, 0.211504
1533.77, 0.211562
1534.23, 0.211739
1534.68, 0.211974
1535.14, 0.212092
1535.59, 0.212150
1536.05, 0.212386
1536.5, 0.212503
1536.96, 0.212621
1537.41, 0.212680
1537.87, 0.212974
1538.32, 0.212974
1538.78, 0.213150
1539.24, 0.213444
1539.7, 0.213562
1540.15, 0.213738
1540.61, 0.213797
1541.07, 0.213914
1541.53, 0.213973
1541.98, 0.214032
1542.44, 0.213973
1542.9, 0.214032
1543.36, 0.214620
1543.82, 0.214914
1544.28, 0.214796
1544.74, 0.215032
1545.2, 0.215090
1545.66, 0.215208
1546.12, 0.215502
1546.59, 0.216031
1547.05, 0.215914
1547.51, 0.215737
1547.97, 0.215914
1548.43, 0.216208
1548.9, 0.216384
1549.36, 0.216737
1549.82, 0.216854
1550.29, 0.217090
1550.75, 0.217207
1551.21, 0.217031
1551.68, 0.217148
1552.14, 0.217501
1552.61, 0.217913
1553.07, 0.217854
1553.54, 0.218207
1554.0, 0.218442
1554.47, 0.218324
1554.93, 0.218501
1555.4, 0.218677
1555.87, 0.218912
1556.34, 0.219030
1556.8, 0.219265
1557.27, 0.219206
1557.74, 0.219148
1558.21, 0.219148
1558.68, 0.219442
1559.14, 0.220030
1559.61, 0.220147
1560.08, 0.220088
1560.55, 0.220324
1561.02, 0.220147
1561.49, 0.220324
1561.96, 0.220559
1562.43, 0.220853
1562.9, 0.221147
1563.38, 0.221323
1563.85, 0.221323
1564.32, 0.221264
1564.79, 0.221500
1565.26, 0.221852
1565.74, 0.221970
1566.21, 0.222146
1566.68, 0.222205
1567.16, 0.222382
1567.63, 0.222499
1568.1, 0.222676
1568.58, 0.222793
1569.05, 0.223087
1569.53, 0.223381
1570.0, 0.223499
1570.48, 0.223499
1570.96, 0.223675
1571.43, 0.223969
1571.91, 0.224087
1572.39, 0.224263
1572.86, 0.224675
1573.34, 0.225086
1573.82, 0.225028
1574.3, 0.224851
1574.77, 0.224969
1575.25, 0.225028
1575.73, 0.225028
1576.21, 0.225145
1576.69, 0.225263
1577.17, 0.225498
1577.65, 0.225792
1578.13, 0.225910
1578.61, 0.225851
1579.09, 0.226086
1579.57, 0.226556
1580.05, 0.226850
1580.54, 0.227027
1581.02, 0.227086
1581.5, 0.227144
1581.98, 0.227086
1582.47, 0.227262
1582.95, 0.227556
1583.43, 0.227732
1583.92, 0.227850
1584.4, 0.228026
1584.88, 0.228026
1585.37, 0.228262
1585.85, 0.228438
1586.34, 0.228556
1586.82, 0.228850
1587.31, 0.229085
1587.8, 0.229026
1588.28, 0.229144
1588.77, 0.229673
1589.26, 0.229790
1589.74, 0.229790
1590.23, 0.229849
1590.72, 0.229849
1591.21, 0.229908
1591.7, 0.230026
1592.19, 0.230202
1592.67, 0.230731
1593.16, 0.231084
1593.65, 0.231025
1594.14, 0.231260
1594.63, 0.231496
1595.12, 0.231437
1595.61, 0.231496
1596.11, 0.231848
1596.6, 0.232142
1597.09, 0.232319
1597.58, 0.232436
1598.08, 0.232554
1598.57, 0.232789
1599.06, 0.232907
1599.55, 0.233083
1600.05, 0.233318
1600.54, 0.233377
1601.04, 0.233436
1601.53, 0.233730
1602.03, 0.233789
1602.52, 0.234083
1603.02, 0.234318
1603.51, 0.234436
1604.01, 0.234788
1604.5, 0.234906
1605.0, 0.235024
1605.5, 0.235082
1606.0, 0.235259
1606.49, 0.235494
1606.99, 0.235612
1607.49, 0.235847
1607.99, 0.235906
1608.49, 0.235906
1608.99, 0.236317
1609.49, 0.236552
1609.99, 0.236670
1610.49, 0.236788
1610.99, 0.236964
1611.49, 0.237434
1611.99, 0.237670
1612.49, 0.237670
1612.99, 0.237787
1613.49, 0.238140
1614.0, 0.238258
1614.5, 0.238140
1615.0, 0.238081
1615.51, 0.238375
1616.01, 0.238787
1616.51, 0.238846
1617.02, 0.238904
1617.52, 0.239081
1618.03, 0.239198
1618.53, 0.239492
1619.04, 0.239904
1619.54, 0.239904
1620.05, 0.240080
1620.55, 0.240551
1621.06, 0.240610
1621.57, 0.240845
1622.08, 0.241139
1622.58, 0.241256
1623.09, 0.241256
1623.6, 0.241256
1624.11, 0.241315
1624.62, 0.241374
1625.13, 0.241433
1625.64, 0.241903
1626.15, 0.242197
1626.66, 0.242256
1627.17, 0.242550
1627.68, 0.242903
1628.19, 0.243020
1628.7, 0.243256
1629.21, 0.243432
1629.72, 0.243373
1630.24, 0.243550
1630.75, 0.243902
1631.26, 0.244138
1631.78, 0.244255
1632.29, 0.244432
1632.8, 0.244490
1633.32, 0.244549
1633.83, 0.244843
1634.35, 0.245314
1634.86, 0.245490
1635.38, 0.245490
1635.9, 0.245372
1636.41, 0.245490
1636.93, 0.245725
1637.45, 0.246137
1637.96, 0.246372
1638.48, 0.246548
1639.0, 0.246725
1639.52, 0.246607
1640.04, 0.246607
1640.56, 0.246960
1641.08, 0.247372
1641.59, 0.247607
1642.11, 0.247724
1642.63, 0.247666
1643.16, 0.247666
1643.68, 0.247842
1644.2, 0.247901
1644.72, 0.247960
1645.24, 0.248136
1645.76, 0.248489
1646.29, 0.248606
1646.81, 0.248724
1647.33, 0.248783
1647.86, 0.249018
1648.38, 0.249371
1648.9, 0.249488
1649.43, 0.249606
1649.95, 0.249665
1650.48, 0.249547
1651.0, 0.249841
1651.53, 0.249959
1652.06, 0.249959
1652.58, 0.250253
1653.11, 0.250547
1653.64, 0.250723
1654.17, 0.251017
1654.69, 0.251135
1655.22, 0.251194
1655.75, 0.251488
1656.28, 0.251546
1656.81, 0.251488
1657.34, 0.251546
1657.87, 0.251958
1658.4, 0.252487
1658.93, 0.252605
1659.46, 0.252487
1659.99, 0.252487
1660.52, 0.252546
1661.05, 0.252546
1661.59, 0.252958
1662.12, 0.253193
1662.65, 0.253075
1663.19, 0.253134
1663.72, 0.253428
1664.26, 0.253840
1664.79, 0.253898
1665.32, 0.253898
1665.86, 0.254192
1666.39, 0.254428
1666.93, 0.254486
1667.47, 0.254486
1668.0, 0.254839
1668.54, 0.255016
1669.08, 0.255016
1669.61, 0.255310
1670.15, 0.255486
1670.69, 0.255780
1671.23, 0.255956
1671.77, 0.256015
1672.31, 0.256192
1672.85, 0.256192
1673.39, 0.256368
1673.93, 0.256721
1674.47, 0.257015
1675.01, 0.257132
1675.55, 0.257250
1676.09, 0.257426
1676.64, 0.257662
1677.18, 0.257956
1677.72, 0.257956
1678.26, 0.258073
1678.81, 0.258132
1679.35, 0.258250
1679.89, 0.258367
1680.44, 0.258779
1680.98, 0.259190
1681.53, 0.259132
1682.07, 0.259249
1682.62, 0.259308
1683.17, 0.259602
1683.71, 0.259837
1684.26, 0.259778
1684.81, 0.259720
1685.36, 0.260131
1685.9, 0.260543
1686.45, 0.260719
1687.0, 0.261013
1687.55, 0.260896
1688.1, 0.260778
1688.65, 0.260837
1689.2, 0.261190
1689.75, 0.261542
1690.3, 0.261601
1690.85, 0.261601
1691.41, 0.261836
1691.96, 0.262130
1692.51, 0.262307
1693.06, 0.262718
1693.61, 0.262836
1694.17, 0.262777
1694.72, 0.262895
1695.28, 0.263189
1695.83, 0.263424
1696.39, 0.263483
1696.94, 0.263542
1697.5, 0.263718
1698.05, 0.263953
1698.61, 0.264071
1699.17, 0.264365
1699.72, 0.264482
1700.28, 0.264424
1700.84, 0.264659
1701.4, 0.264600
1701.95, 0.264600
1702.51, 0.264835
1703.07, 0.265129
1703.63, 0.265188
1704.19, 0.265423
1704.75, 0.265776
1705.31, 0.265776
1705.88, 0.265835
1706.44, 0.265894
1707.0, 0.266129
1707.56, 0.266305
1708.12, 0.266188
1708.69, 0.266364
1709.25, 0.266717
1709.81, 0.266893
1710.38, 0.267011
1710.94, 0.267187
1711.51, 0.267422
1712.07, 0.267481
1712.64, 0.267364
1713.2, 0.267481
1713.77, 0.267775
1714.34, 0.268069
1714.9, 0.268128
1715.47, 0.268246
1716.04, 0.268422
1716.61, 0.268657
1717.18, 0.268775
1717.74, 0.268716
1718.31, 0.268716
1718.88, 0.268775
1719.45, 0.269128
1720.02, 0.269186
1720.59, 0.269186
1721.17, 0.269422
1721.74, 0.269657
1722.31, 0.269892
1722.88, 0.270010
1723.45, 0.270010
1724.03, 0.270068
1724.6, 0.270362
1725.18, 0.270656
1725.75, 0.270598
1726.33, 0.270950
1726.9, 0.271009
1727.48, 0.271009
1728.05, 0.271068
1728.63, 0.271303
1729.2, 0.271480
1729.78, 0.271538
1730.36, 0.271774
1730.94, 0.271950
1731.51, 0.272126
1732.09, 0.272479
1732.67, 0.272420
1733.25, 0.272362
1733.83, 0.272656
1734.41, 0.272773
1734.99, 0.272891
1735.57, 0.273244
1736.15, 0.273420
1736.73, 0.273538
1737.32, 0.273655
1737.9, 0.273479
1738.48, 0.273185
1739.07, 0.273479
1739.65, 0.274008
1740.23, 0.274184
1740.82, 0.274243
1741.4, 0.274243
1741.99, 0.274243
1742.57, 0.274537
1743.16, 0.274949
1743.74, 0.275125
1744.33, 0.275302
1744.92, 0.275478
1745.51, 0.275654
1746.09, 0.275772
1746.68, 0.275890
1747.27, 0.275948
1747.86, 0.276125
1748.45, 0.276184
1749.04, 0.276360
1749.63, 0.276360
1750.22, 0.276478
1750.81, 0.276478
1751.4, 0.276654
1751.99, 0.277007
1752.59, 0.277124
1753.18, 0.277301
1753.77, 0.277536
1754.37, 0.277477
1754.96, 0.277418
1755.56, 0.277654
1756.15, 0.278006
1756.74, 0.278242
1757.34, 0.278359
1757.94, 0.278359
1758.53, 0.278536
1759.13, 0.278477
1759.73, 0.278594
