Database of Origin, USGS Spectral Database
Sample Description, See USGS database for additional info
Date Added,2016-08-10 05:37:19.115118

Data ID,USGS_ser03          
Sample ID, serpentine_hs8.20418
Mineral Name, serpentine
Material Class,Phyllosilicate

Wavelength
1508.34, 0.161957
1508.78, 0.163203
1509.21, 0.162690
1509.66, 0.162470
1510.09, 0.162763
1510.53, 0.161883
1510.97, 0.161370
1511.42, 0.161370
1511.86, 0.162103
1512.3, 0.163130
1512.74, 0.162983
1513.18, 0.161957
1513.62, 0.162030
1514.06, 0.162910
1514.51, 0.162616
1514.95, 0.162836
1515.39, 0.163130
1515.83, 0.162470
1516.28, 0.162983
1516.72, 0.163643
1517.16, 0.162690
1517.61, 0.162250
1518.05, 0.162250
1518.5, 0.163130
1518.94, 0.163570
1519.39, 0.162690
1519.83, 0.162836
1520.28, 0.163716
1520.73, 0.163056
1521.17, 0.162690
1521.62, 0.162323
1522.07, 0.162177
1522.51, 0.163203
1522.96, 0.163643
1523.41, 0.163643
1523.85, 0.164009
1524.3, 0.163643
1524.75, 0.163863
1525.2, 0.163790
1525.65, 0.163716
1526.1, 0.163790
1526.55, 0.164229
1527.0, 0.164889
1527.45, 0.164816
1527.9, 0.164889
1528.35, 0.163790
1528.8, 0.163056
1529.25, 0.164743
1529.7, 0.165403
1530.15, 0.165036
1530.6, 0.164963
1531.05, 0.165036
1531.51, 0.165183
1531.96, 0.165696
1532.41, 0.165476
1532.87, 0.165183
1533.32, 0.164963
1533.77, 0.165256
1534.23, 0.165916
1534.68, 0.166282
1535.14, 0.165476
1535.59, 0.165403
1536.05, 0.166136
1536.5, 0.166502
1536.96, 0.166722
1537.41, 0.166649
1537.87, 0.166209
1538.32, 0.166429
1538.78, 0.166356
1539.24, 0.166429
1539.7, 0.167235
1540.15, 0.167822
1540.61, 0.167822
1541.07, 0.168482
1541.53, 0.168115
1541.98, 0.167455
1542.44, 0.167309
1542.9, 0.167529
1543.36, 0.167529
1543.82, 0.168042
1544.28, 0.168115
1544.74, 0.168262
1545.2, 0.168408
1545.66, 0.169215
1546.12, 0.169215
1546.59, 0.168482
1547.05, 0.168408
1547.51, 0.169288
1547.97, 0.169288
1548.43, 0.169288
1548.9, 0.169875
1549.36, 0.170021
1549.82, 0.169802
1550.29, 0.169582
1550.75, 0.169215
1551.21, 0.169802
1551.68, 0.170535
1552.14, 0.171341
1552.61, 0.171268
1553.07, 0.170095
1553.54, 0.169875
1554.0, 0.170608
1554.47, 0.170975
1554.93, 0.171561
1555.4, 0.172001
1555.87, 0.171634
1556.34, 0.171341
1556.8, 0.172074
1557.27, 0.171708
1557.74, 0.171121
1558.21, 0.170975
1558.68, 0.171488
1559.14, 0.171854
1559.61, 0.172441
1560.08, 0.172514
1560.55, 0.172368
1561.02, 0.172148
1561.49, 0.172588
1561.96, 0.172807
1562.43, 0.172807
1562.9, 0.172368
1563.38, 0.172807
1563.85, 0.172588
1564.32, 0.172588
1564.79, 0.173394
1565.26, 0.173467
1565.74, 0.173174
1566.21, 0.173614
1566.68, 0.173614
1567.16, 0.173321
1567.63, 0.173174
1568.1, 0.173174
1568.58, 0.173761
1569.05, 0.174347
1569.53, 0.173981
1570.0, 0.174201
1570.48, 0.174347
1570.96, 0.174494
1571.43, 0.174127
1571.91, 0.174201
1572.39, 0.174714
1572.86, 0.175154
1573.34, 0.175300
1573.82, 0.175374
1574.3, 0.175227
1574.77, 0.175447
1575.25, 0.175740
1575.73, 0.176107
1576.21, 0.176033
1576.69, 0.175594
1577.17, 0.175227
1577.65, 0.175447
1578.13, 0.175594
1578.61, 0.175887
1579.09, 0.176107
1579.57, 0.176107
1580.05, 0.175813
1580.54, 0.176327
1581.02, 0.176693
1581.5, 0.176913
1581.98, 0.177207
1582.47, 0.177133
1582.95, 0.176840
1583.43, 0.177060
1583.92, 0.177133
1584.4, 0.177573
1584.88, 0.177426
1585.37, 0.177500
1585.85, 0.177940
1586.34, 0.178600
1586.82, 0.178746
1587.31, 0.178526
1587.8, 0.177866
1588.28, 0.177940
1588.77, 0.178013
1589.26, 0.177866
1589.74, 0.178013
1590.23, 0.178086
1590.72, 0.178233
1591.21, 0.178893
1591.7, 0.178966
1592.19, 0.178233
1592.67, 0.178086
1593.16, 0.179113
1593.65, 0.179259
1594.14, 0.179113
1594.63, 0.179113
1595.12, 0.179699
1595.61, 0.180286
1596.11, 0.180359
1596.6, 0.180286
1597.09, 0.180872
1597.58, 0.180799
1598.08, 0.180946
1598.57, 0.180799
1599.06, 0.180506
1599.55, 0.180066
1600.05, 0.180359
1600.54, 0.180726
1601.04, 0.180432
1601.53, 0.179846
1602.03, 0.179846
1602.52, 0.179919
1603.02, 0.180946
1603.51, 0.181239
1604.01, 0.181239
1604.5, 0.181312
1605.0, 0.181166
1605.5, 0.181312
1606.0, 0.181386
1606.49, 0.181679
1606.99, 0.182045
1607.49, 0.181312
1607.99, 0.181752
1608.49, 0.181899
1608.99, 0.181752
1609.49, 0.181825
1609.99, 0.181899
1610.49, 0.181972
1610.99, 0.181825
1611.49, 0.182045
1611.99, 0.182705
1612.49, 0.182852
1612.99, 0.183072
1613.49, 0.182632
1614.0, 0.182412
1614.5, 0.182779
1615.0, 0.183145
1615.51, 0.182925
1616.01, 0.183218
1616.51, 0.183512
1617.02, 0.183585
1617.52, 0.183732
1618.03, 0.183952
1618.53, 0.183585
1619.04, 0.183218
1619.54, 0.183438
1620.05, 0.184392
1620.55, 0.184465
1621.06, 0.184245
1621.57, 0.183732
1622.08, 0.183658
1622.58, 0.183658
1623.09, 0.183732
1623.6, 0.184172
1624.11, 0.184172
1624.62, 0.183585
1625.13, 0.184245
1625.64, 0.184758
1626.15, 0.184611
1626.66, 0.184538
1627.17, 0.184978
1627.68, 0.184905
1628.19, 0.184611
1628.7, 0.184978
1629.21, 0.185271
1629.72, 0.184758
1630.24, 0.184538
1630.75, 0.184831
1631.26, 0.184758
1631.78, 0.185051
1632.29, 0.185638
1632.8, 0.185345
1633.32, 0.184978
1633.83, 0.185051
1634.35, 0.185491
1634.86, 0.185785
1635.38, 0.185931
1635.9, 0.185491
1636.41, 0.185271
1636.93, 0.185345
1637.45, 0.185418
1637.96, 0.185418
1638.48, 0.186371
1639.0, 0.186958
1639.52, 0.186444
1640.04, 0.186298
1640.56, 0.186298
1641.08, 0.186005
1641.59, 0.186591
1642.11, 0.186664
1642.63, 0.186078
1643.16, 0.186005
1643.68, 0.186151
1644.2, 0.186078
1644.72, 0.186518
1645.24, 0.186664
1645.76, 0.187178
1646.29, 0.187324
1646.81, 0.187251
1647.33, 0.186958
1647.86, 0.187104
1648.38, 0.187324
1648.9, 0.187031
1649.43, 0.186738
1649.95, 0.187251
1650.48, 0.187691
1651.0, 0.187837
1651.53, 0.187398
1652.06, 0.187544
1652.58, 0.187544
1653.11, 0.187911
1653.64, 0.188057
1654.17, 0.188057
1654.69, 0.187911
1655.22, 0.188424
1655.75, 0.188351
1656.28, 0.188057
1656.81, 0.187911
1657.34, 0.188204
1657.87, 0.188277
1658.4, 0.188644
1658.93, 0.188791
1659.46, 0.188497
1659.99, 0.188277
1660.52, 0.187911
1661.05, 0.188057
1661.59, 0.188277
1662.12, 0.188204
1662.65, 0.188644
1663.19, 0.189157
1663.72, 0.189450
1664.26, 0.189084
1664.79, 0.189084
1665.32, 0.189157
1665.86, 0.189084
1666.39, 0.189011
1666.93, 0.189230
1667.47, 0.189084
1668.0, 0.189011
1668.54, 0.188791
1669.08, 0.189084
1669.61, 0.189304
1670.15, 0.189744
1670.69, 0.190184
1671.23, 0.189817
1671.77, 0.189524
1672.31, 0.189670
1672.85, 0.189377
1673.39, 0.189377
1673.93, 0.190110
1674.47, 0.190623
1675.01, 0.190477
1675.55, 0.190404
1676.09, 0.190184
1676.64, 0.190477
1677.18, 0.190550
1677.72, 0.190550
1678.26, 0.190330
1678.81, 0.190330
1679.35, 0.190330
1679.89, 0.190623
1680.44, 0.190917
1680.98, 0.190623
1681.53, 0.190404
1682.07, 0.190917
1682.62, 0.191063
1683.17, 0.190917
1683.71, 0.190917
1684.26, 0.190770
1684.81, 0.190623
1685.36, 0.190843
1685.9, 0.190550
1686.45, 0.190843
1687.0, 0.191430
1687.55, 0.191503
1688.1, 0.191357
1688.65, 0.191283
1689.2, 0.190843
1689.75, 0.190917
1690.3, 0.191210
1690.85, 0.191210
1691.41, 0.191137
1691.96, 0.191210
1692.51, 0.191357
1693.06, 0.191870
1693.61, 0.191723
1694.17, 0.191357
1694.72, 0.191577
1695.28, 0.192016
1695.83, 0.191943
1696.39, 0.191797
1696.94, 0.191723
1697.5, 0.192016
1698.05, 0.191870
1698.61, 0.191870
1699.17, 0.191797
1699.72, 0.191943
1700.28, 0.191870
1700.84, 0.192090
1701.4, 0.192016
1701.95, 0.192090
1702.51, 0.192163
1703.07, 0.192236
1703.63, 0.191870
1704.19, 0.191797
1704.75, 0.192236
1705.31, 0.192383
1705.88, 0.192163
1706.44, 0.192603
1707.0, 0.192530
1707.56, 0.192236
1708.12, 0.192090
1708.69, 0.192236
1709.25, 0.192163
1709.81, 0.192383
1710.38, 0.192530
1710.94, 0.192603
1711.51, 0.192530
1712.07, 0.192456
1712.64, 0.192456
1713.2, 0.192603
1713.77, 0.193116
1714.34, 0.193263
1714.9, 0.193043
1715.47, 0.193116
1716.04, 0.193116
1716.61, 0.193043
1717.18, 0.192970
1717.74, 0.193190
1718.31, 0.193263
1718.88, 0.193116
1719.45, 0.193116
1720.02, 0.193263
1720.59, 0.193263
1721.17, 0.193336
1721.74, 0.193556
1722.31, 0.193556
1722.88, 0.193556
1723.45, 0.193849
1724.03, 0.193849
1724.6, 0.193849
1725.18, 0.193996
1725.75, 0.193996
1726.33, 0.193409
1726.9, 0.193409
1727.48, 0.193776
1728.05, 0.193996
1728.63, 0.194143
1729.2, 0.194143
1729.78, 0.193923
1730.36, 0.193776
1730.94, 0.193923
1731.51, 0.194363
1732.09, 0.194729
1732.67, 0.194656
1733.25, 0.194363
1733.83, 0.194363
1734.41, 0.194289
1734.99, 0.194216
1735.57, 0.194289
1736.15, 0.194509
1736.73, 0.194729
1737.32, 0.194656
1737.9, 0.194289
1738.48, 0.194143
1739.07, 0.194069
1739.65, 0.194363
1740.23, 0.194509
1740.82, 0.194729
1741.4, 0.194583
1741.99, 0.194436
1742.57, 0.194509
1743.16, 0.194656
1743.74, 0.194583
1744.33, 0.194876
1744.92, 0.195096
1745.51, 0.195242
1746.09, 0.195022
1746.68, 0.194803
1747.27, 0.194729
1747.86, 0.195022
1748.45, 0.194729
1749.04, 0.194949
1749.63, 0.194949
1750.22, 0.194803
1750.81, 0.194729
1751.4, 0.195316
1751.99, 0.195536
1752.59, 0.195242
1753.18, 0.195022
1753.77, 0.195169
1754.37, 0.194876
1754.96, 0.194949
1755.56, 0.194949
1756.15, 0.195096
1756.74, 0.195389
1757.34, 0.195609
1757.94, 0.195682
1758.53, 0.195829
1759.13, 0.195829
1759.73, 0.195829
1760.32, 0.195536
1760.92, 0.195389
1761.52, 0.195242
1762.12, 0.195536
1762.72, 0.195829
1763.32, 0.196122
1763.92, 0.195902
1764.52, 0.195462
1765.12, 0.195462
1765.72, 0.196049
1766.32, 0.196049
1766.92, 0.195976
1767.53, 0.196049
1768.13, 0.196049
1768.73, 0.195976
1769.34, 0.195902
1769.94, 0.195902
1770.55, 0.195976
1771.15, 0.196049
1771.76, 0.196562
1772.36, 0.196489
1772.97, 0.195902
1773.57, 0.195756
1774.18, 0.195902
1774.79, 0.195682
1775.4, 0.195536
1776.0, 0.195829
1776.61, 0.196122
1777.22, 0.195829
1777.83, 0.195829
1778.44, 0.195756
1779.05, 0.195976
1779.66, 0.196196
1780.27, 0.196269
1780.88, 0.196049
1781.5, 0.195902
1782.11, 0.195902
1782.72, 0.196196
1783.33, 0.196415
1783.95, 0.196415
1784.56, 0.196196
1785.18, 0.196269
1785.79, 0.196342
1786.41, 0.196489
1787.02, 0.196489
1787.64, 0.196489
1788.26, 0.196196
1788.87, 0.196049
1789.49, 0.196415
1790.11, 0.196782
1790.73, 0.196709
1791.35, 0.196709
1791.96, 0.196489
1792.58, 0.196635
1793.21, 0.196415
1793.83, 0.196415
1794.45, 0.196635
1795.07, 0.196855
1795.69, 0.197002
1796.31, 0.196855
1796.93, 0.196709
1797.56, 0.196709
1798.18, 0.196635
1798.8, 0.196855
1799.43, 0.196929
1800.05, 0.197075
1800.68, 0.196709
1801.3, 0.196635
1801.93, 0.196782
1802.56, 0.196782
1803.18, 0.197002
1803.81, 0.197222
1804.44, 0.197002
1805.07, 0.197075
1805.7, 0.197149
1806.33, 0.197149
1806.95, 0.197075
1807.58, 0.197149
1808.22, 0.197002
1808.85, 0.197222
1809.48, 0.197515
1810.11, 0.197442
1810.74, 0.197369
1811.38, 0.197295
1812.01, 0.197442
1812.64, 0.197662
1813.28, 0.197369
1813.91, 0.197515
1814.55, 0.197882
1815.18, 0.198028
1815.82, 0.197662
1816.45, 0.197295
1817.09, 0.197222
1817.73, 0.197295
1818.36, 0.197442
1819.0, 0.198102
1819.64, 0.198322
1820.28, 0.198028
1820.92, 0.197662
1821.56, 0.197515
1822.2, 0.197589
1822.84, 0.197808
1823.48, 0.197808
1824.12, 0.197735
1824.76, 0.197808
1825.41, 0.198102
1826.05, 0.198322
1826.69, 0.198248
1827.34, 0.197955
1827.98, 0.198175
1828.63, 0.198175
1829.27, 0.198175
1829.92, 0.198248
1830.56, 0.198395
1831.21, 0.198468
1831.86, 0.198615
1832.5, 0.198322
1833.15, 0.198322
1833.8, 0.198688
1834.45, 0.198615
1835.1, 0.198175
1835.75, 0.198248
1836.4, 0.198175
1837.05, 0.198102
1837.7, 0.198322
1838.35, 0.198248
1839.01, 0.198248
1839.66, 0.198468
1840.31, 0.198248
1840.96, 0.198248
1841.62, 0.198468
1842.27, 0.198322
1842.93, 0.198028
1843.58, 0.198028
1844.24, 0.197808
1844.9, 0.197882
1845.55, 0.198102
1846.21, 0.198615
1846.87, 0.198835
1847.53, 0.198762
1848.18, 0.198615
1848.84, 0.198468
1849.5, 0.198248
1850.16, 0.198248
1850.82, 0.198175
1851.48, 0.198248
1852.14, 0.198542
1852.81, 0.198542
1853.47, 0.198542
1854.13, 0.198395
1854.8, 0.198175
1855.46, 0.198322
1856.12, 0.198468
1856.79, 0.198688
1857.45, 0.198322
1858.12, 0.198468
1858.79, 0.198835
1859.45, 0.199348
1860.12, 0.199055
1860.79, 0.198762
1861.46, 0.198762
1862.12, 0.198908
1862.79, 0.198908
1863.46, 0.198908
1864.13, 0.198762
1864.8, 0.198762
1865.48, 0.198395
1866.15, 0.198395
1866.82, 0.198615
1867.49, 0.198908
1868.16, 0.198982
1868.84, 0.199128
1869.51, 0.198982
1870.19, 0.199202
1870.86, 0.199348
1871.54, 0.198835
1872.21, 0.198542
1872.89, 0.199055
1873.56, 0.199128
1874.24, 0.198908
1874.92, 0.198762
1875.6, 0.198615
1876.28, 0.198542
1876.96, 0.198688
1877.64, 0.198468
1878.32, 0.198395
1879.0, 0.198395
1879.68, 0.198542
1880.36, 0.198395
1881.04, 0.198468
1881.73, 0.198468
1882.41, 0.198468
1883.09, 0.198322
1883.78, 0.198322
1884.46, 0.198102
1885.15, 0.198028
1885.83, 0.198102
1886.52, 0.197882
1887.21, 0.197589
1887.89, 0.197955
1888.58, 0.198175
1889.27, 0.198248
1889.96, 0.198028
1890.65, 0.197589
1891.34, 0.197808
1892.03, 0.197882
1892.72, 0.197589
1893.41, 0.197589
1894.1, 0.197515
1894.79, 0.197295
1895.49, 0.196855
1896.18, 0.196929
1896.87, 0.197075
1897.57, 0.197295
1898.26, 0.197369
1898.96, 0.197075
1899.65, 0.196709
1900.35, 0.196782
1901.05, 0.196709
1901.74, 0.196562
1902.44, 0.196635
1903.14, 0.196782
1903.84, 0.196489
1904.54, 0.196562
1905.24, 0.196635
1905.94, 0.196269
1906.64, 0.196342
1907.34, 0.196269
1908.04, 0.195829
1908.75, 0.195829
1909.45, 0.195609
1910.15, 0.195609
1910.86, 0.195536
1911.56, 0.195536
1912.27, 0.195389
1912.97, 0.195609
1913.68, 0.195756
1914.39, 0.195536
1915.09, 0.195242
1915.8, 0.195316
1916.51, 0.195242
1917.22, 0.195169
1917.93, 0.195242
1918.64, 0.195389
1919.35, 0.195389
1920.06, 0.195389
1920.77, 0.195169
1921.48, 0.195022
1922.19, 0.195022
1922.91, 0.195389
1923.62, 0.195389
1924.33, 0.195316
1925.05, 0.195022
1925.76, 0.195169
1926.48, 0.194949
1927.19, 0.194803
1927.91, 0.194656
1928.63, 0.194876
1929.35, 0.195169
1930.07, 0.195022
1930.78, 0.194949
1931.5, 0.194876
1932.22, 0.194729
1932.94, 0.194803
1933.66, 0.194803
1934.39, 0.194729
1935.11, 0.194656
1935.83, 0.194509
1936.55, 0.194363
1937.28, 0.194363
1938.0, 0.194363
1938.73, 0.194436
1939.45, 0.194069
1940.18, 0.194069
1940.9, 0.194289
1941.63, 0.194289
1942.36, 0.194069
1943.09, 0.194143
1943.81, 0.193996
1944.54, 0.194216
1945.27, 0.194069
1946.0, 0.193703
1946.73, 0.193409
1947.47, 0.193263
1948.2, 0.193336
1948.93, 0.193483
1949.66, 0.193190
1950.4, 0.193116
1951.13, 0.193116
1951.86, 0.192970
1952.6, 0.192750
1953.34, 0.192603
1954.07, 0.192456
1954.81, 0.192310
1955.55, 0.192310
1956.29, 0.192456
1957.02, 0.192383
1957.76, 0.192456
1958.5, 0.192383
1959.24, 0.192016
1959.98, 0.191723
1960.72, 0.191723
1961.47, 0.191797
1962.21, 0.191723
1962.95, 0.191503
1963.7, 0.191650
1964.44, 0.191503
1965.18, 0.191430
1965.93, 0.191357
1966.67, 0.191210
1967.42, 0.191283
1968.17, 0.191577
1968.92, 0.191430
1969.66, 0.191283
1970.41, 0.191137
1971.16, 0.191137
1971.91, 0.190770
1972.66, 0.190770
1973.41, 0.190770
1974.16, 0.190623
1974.92, 0.190330
1975.67, 0.190330
1976.42, 0.190770
1977.18, 0.190990
1977.93, 0.190917
1978.69, 0.190917
1979.44, 0.190770
1980.2, 0.190697
1980.95, 0.190257
1981.71, 0.190110
1982.47, 0.190257
1983.23, 0.190477
1983.99, 0.190770
1984.74, 0.190917
1985.51, 0.190917
1986.27, 0.191137
1987.03, 0.191137
1987.79, 0.191137
1988.55, 0.191283
1989.32, 0.191357
1990.08, 0.191283
1990.84, 0.191210
1991.61, 0.191283
1992.37, 0.191650
1993.14, 0.191797
1993.9, 0.191797
1994.67, 0.191723
1995.44, 0.191723
1996.21, 0.191723
1996.98, 0.192016
1997.75, 0.192163
1998.52, 0.192383
1999.29, 0.192530
2000.06, 0.192603
2000.83, 0.192383
2001.6, 0.192530
2002.38, 0.192603
2003.15, 0.192530
2003.93, 0.192676
2004.7, 0.192970
2005.48, 0.192896
2006.25, 0.192970
2007.03, 0.192896
2007.81, 0.192750
2008.58, 0.192750
2009.36, 0.193190
2010.14, 0.193629
2010.92, 0.193556
2011.7, 0.193336
2012.48, 0.193556
2013.26, 0.193703
2014.05, 0.193703
2014.83, 0.193849
2015.61, 0.194069
2016.4, 0.193776
2017.18, 0.193776
2017.97, 0.194143
2018.75, 0.194583
2019.54, 0.194363
2020.32, 0.194289
2021.11, 0.194583
2021.9, 0.194803
2022.69, 0.194656
2023.48, 0.194583
2024.27, 0.194656
2025.06, 0.194803
2025.85, 0.194729
2026.64, 0.194876
2027.44, 0.194949
2028.23, 0.195022
2029.02, 0.194876
2029.82, 0.194876
2030.61, 0.195096
2031.41, 0.195242
2032.2, 0.195462
2033.0, 0.195829
2033.8, 0.195682
2034.6, 0.195609
2035.4, 0.195682
2036.2, 0.195829
2037.0, 0.195902
2037.8, 0.195902
2038.6, 0.196196
2039.4, 0.196489
2040.2, 0.196489
2041.01, 0.196635
2041.81, 0.196709
2042.61, 0.196635
2043.42, 0.196562
2044.22, 0.196929
2045.03, 0.197295
2045.84, 0.197295
2046.65, 0.197149
2047.46, 0.197222
2048.26, 0.197515
2049.07, 0.197808
2049.88, 0.197662
2050.69, 0.197589
2051.51, 0.197515
2052.32, 0.197662
2053.13, 0.197662
2053.94, 0.197882
2054.76, 0.197955
2055.57, 0.197955
2056.39, 0.198028
2057.2, 0.198322
2058.02, 0.198102
2058.84, 0.197882
2059.66, 0.198028
2060.48, 0.198322
2061.29, 0.198688
2062.11, 0.198835
2062.94, 0.198615
2063.76, 0.198468
2064.58, 0.198322
2065.4, 0.198322
2066.22, 0.198468
2067.05, 0.198542
2067.87, 0.198322
2068.7, 0.198248
2069.52, 0.198248
2070.35, 0.198322
2071.18, 0.198322
2072.0, 0.198248
2072.83, 0.198175
2073.66, 0.198175
2074.49, 0.197735
2075.32, 0.197515
2076.15, 0.197515
2076.98, 0.197369
2077.82, 0.197075
2078.65, 0.197002
2079.48, 0.196855
2080.32, 0.196562
2081.15, 0.196122
2081.99, 0.195829
2082.83, 0.195829
2083.66, 0.195536
2084.5, 0.195169
2085.34, 0.194949
2086.18, 0.194509
2087.02, 0.194143
2087.86, 0.193923
2088.7, 0.193923
2089.54, 0.193923
2090.39, 0.193849
2091.23, 0.193703
2092.07, 0.193629
2092.92, 0.193556
2093.76, 0.193556
2094.61, 0.193409
2095.45, 0.193483
2096.3, 0.193409
2097.15, 0.193116
2098.0, 0.193043
2098.85, 0.193043
2099.7, 0.192970
2100.55, 0.192896
2101.4, 0.192896
2102.25, 0.192896
2103.1, 0.192823
2103.96, 0.192896
2104.81, 0.192750
2105.67, 0.192896
2106.52, 0.192823
2107.38, 0.192823
2108.24, 0.192676
2109.09, 0.192603
2109.95, 0.192676
2110.81, 0.193043
2111.67, 0.193263
2112.53, 0.193483
2113.39, 0.193483
2114.25, 0.193849
2115.12, 0.193849
2115.98, 0.193629
2116.84, 0.193629
2117.71, 0.193849
2118.58, 0.193923
2119.44, 0.193996
2120.31, 0.194069
2121.18, 0.194143
2122.04, 0.194363
2122.91, 0.194509
2123.78, 0.194289
2124.65, 0.194216
2125.52, 0.193996
2126.4, 0.193849
2127.27, 0.193703
2128.14, 0.193629
2129.02, 0.193483
2129.89, 0.193483
2130.77, 0.193190
2131.64, 0.192970
2132.52, 0.193043
2133.4, 0.193263
2134.27, 0.193336
2135.15, 0.193409
2136.03, 0.193483
2136.91, 0.193703
2137.79, 0.193776
2138.68, 0.193776
2139.56, 0.193703
2140.44, 0.193849
2141.33, 0.193923
2142.21, 0.193996
2143.1, 0.194363
2143.99, 0.194583
2144.87, 0.194509
2145.76, 0.194583
2146.65, 0.194803
2147.54, 0.195096
2148.43, 0.195169
2149.32, 0.195389
2150.21, 0.195462
2151.1, 0.195609
2151.99, 0.195829
2152.89, 0.195976
2153.78, 0.195976
2154.68, 0.196122
2155.57, 0.196269
2156.47, 0.196489
2157.37, 0.196489
2158.27, 0.196562
2159.16, 0.196635
2160.06, 0.196635
2160.96, 0.196709
2161.86, 0.196782
2162.77, 0.196855
2163.67, 0.197002
2164.57, 0.197075
2165.48, 0.197222
