Database of Origin, USGS Spectral Database
Sample Description, See USGS database for additional info
Date Added,2016-08-10 05:33:17.018864

Data ID,USGS_rho08          
Sample ID, rhodonite_nmnh6148.19401
Mineral Name, rhodonite
Material Class,Inosilicate

Wavelength
1424.22, 0.575614
1424.61, 0.575081
1425.0, 0.574867
1425.39, 0.575081
1425.78, 0.574761
1426.18, 0.574227
1426.57, 0.574013
1426.96, 0.573693
1427.36, 0.573266
1427.75, 0.573053
1428.14, 0.572946
1428.54, 0.572412
1428.93, 0.572412
1429.32, 0.572306
1429.72, 0.571772
1430.11, 0.571345
1430.51, 0.571665
1430.9, 0.571879
1431.3, 0.571559
1431.69, 0.571452
1432.09, 0.571345
1432.48, 0.571132
1432.88, 0.570598
1433.28, 0.570064
1433.67, 0.569851
1434.07, 0.569637
1434.46, 0.569531
1434.86, 0.569104
1435.26, 0.568783
1435.66, 0.568250
1436.05, 0.568143
1436.45, 0.568677
1436.85, 0.568357
1437.25, 0.567396
1437.65, 0.567503
1438.05, 0.568250
1438.44, 0.567716
1438.84, 0.567182
1439.24, 0.566969
1439.64, 0.566542
1440.04, 0.566435
1440.44, 0.566542
1440.84, 0.566008
1441.24, 0.565795
1441.65, 0.566008
1442.05, 0.565795
1442.45, 0.565795
1442.85, 0.565902
1443.25, 0.565795
1443.65, 0.565261
1444.05, 0.564941
1444.46, 0.564407
1444.86, 0.564087
1445.26, 0.563660
1445.67, 0.563554
1446.07, 0.563767
1446.47, 0.564087
1446.88, 0.563340
1447.28, 0.563340
1447.68, 0.563340
1448.09, 0.562700
1448.49, 0.562166
1448.9, 0.562379
1449.3, 0.561739
1449.71, 0.562593
1450.11, 0.562700
1450.52, 0.562273
1450.93, 0.562379
1451.33, 0.561632
1451.74, 0.560992
1452.14, 0.561526
1452.55, 0.561526
1452.96, 0.560992
1453.36, 0.560992
1453.77, 0.561526
1454.18, 0.561526
1454.59, 0.561739
1455.0, 0.561099
1455.41, 0.560458
1455.81, 0.560351
1456.22, 0.560031
1456.63, 0.560245
1457.04, 0.559925
1457.45, 0.559711
1457.86, 0.560458
1458.27, 0.561099
1458.68, 0.560351
1459.09, 0.559925
1459.5, 0.559604
1459.91, 0.559284
1460.32, 0.559177
1460.74, 0.559284
1461.15, 0.559498
1461.56, 0.558537
1461.97, 0.558324
1462.39, 0.558110
1462.8, 0.557790
1463.21, 0.557897
1463.62, 0.558110
1464.04, 0.557897
1464.45, 0.557576
1464.86, 0.557149
1465.28, 0.557363
1465.69, 0.557897
1466.11, 0.558110
1466.52, 0.557683
1466.94, 0.557683
1467.35, 0.557576
1467.77, 0.557683
1468.18, 0.557149
1468.6, 0.556189
1469.02, 0.556402
1469.43, 0.556509
1469.85, 0.556189
1470.27, 0.556616
1470.68, 0.556509
1471.1, 0.555975
1471.52, 0.555442
1471.94, 0.555762
1472.35, 0.556509
1472.77, 0.556829
1473.19, 0.556402
1473.61, 0.555869
1474.03, 0.555655
1474.45, 0.555442
1474.87, 0.554695
1475.29, 0.554908
1475.71, 0.555762
1476.13, 0.556402
1476.55, 0.556189
1476.97, 0.555869
1477.39, 0.555762
1477.81, 0.555762
1478.23, 0.555335
1478.65, 0.555228
1479.07, 0.555122
1479.5, 0.555122
1479.92, 0.555228
1480.34, 0.555655
1480.76, 0.556189
1481.19, 0.556936
1481.61, 0.556723
1482.03, 0.556189
1482.46, 0.556082
1482.88, 0.555975
1483.31, 0.556296
1483.73, 0.556189
1484.16, 0.556189
1484.58, 0.556402
1485.01, 0.556082
1485.43, 0.555869
1485.86, 0.556082
1486.28, 0.555548
1486.71, 0.555335
1487.14, 0.556082
1487.56, 0.556936
1487.99, 0.556936
1488.42, 0.556509
1488.84, 0.555975
1489.27, 0.555655
1489.7, 0.556082
1490.13, 0.555975
1490.56, 0.556296
1490.98, 0.557149
1491.41, 0.556936
1491.84, 0.556509
1492.27, 0.556189
1492.7, 0.556189
1493.13, 0.556616
1493.56, 0.556829
1493.99, 0.556509
1494.42, 0.556936
1494.85, 0.557256
1495.29, 0.557149
1495.72, 0.557683
1496.15, 0.557256
1496.58, 0.556509
1497.01, 0.556402
1497.44, 0.556616
1497.88, 0.556936
1498.31, 0.557256
1498.74, 0.557256
1499.18, 0.557256
1499.61, 0.557897
1500.04, 0.558430
1500.48, 0.558003
1500.91, 0.557790
1501.35, 0.557149
1501.78, 0.556936
1502.22, 0.557683
1502.65, 0.557897
1503.09, 0.557470
1503.53, 0.557897
1503.96, 0.558644
1504.4, 0.559071
1504.83, 0.558430
1505.27, 0.558217
1505.71, 0.558110
1506.15, 0.558110
1506.58, 0.558430
1507.02, 0.558644
1507.46, 0.558430
1507.9, 0.558430
1508.34, 0.558324
1508.78, 0.558644
1509.21, 0.558857
1509.66, 0.559071
1510.09, 0.559391
1510.53, 0.559177
1510.97, 0.558857
1511.42, 0.558751
1511.86, 0.558537
1512.3, 0.558644
1512.74, 0.558217
1513.18, 0.558324
1513.62, 0.559177
1514.06, 0.559177
1514.51, 0.558537
1514.95, 0.558644
1515.39, 0.558751
1515.83, 0.559391
1516.28, 0.559604
1516.72, 0.559284
1517.16, 0.559177
1517.61, 0.559284
1518.05, 0.558964
1518.5, 0.558857
1518.94, 0.559391
1519.39, 0.560138
1519.83, 0.560031
1520.28, 0.559925
1520.73, 0.559604
1521.17, 0.560031
1521.62, 0.560138
1522.07, 0.559818
1522.51, 0.559711
1522.96, 0.559925
1523.41, 0.560031
1523.85, 0.560245
1524.3, 0.560885
1524.75, 0.560992
1525.2, 0.560245
1525.65, 0.560245
1526.1, 0.560458
1526.55, 0.560565
1527.0, 0.561205
1527.45, 0.560992
1527.9, 0.560672
1528.35, 0.560458
1528.8, 0.560351
1529.25, 0.560885
1529.7, 0.560778
1530.15, 0.560672
1530.6, 0.560992
1531.05, 0.561632
1531.51, 0.561739
1531.96, 0.561739
1532.41, 0.561846
1532.87, 0.561952
1533.32, 0.561526
1533.77, 0.562166
1534.23, 0.562486
1534.68, 0.562166
1535.14, 0.561952
1535.59, 0.561846
1536.05, 0.561739
1536.5, 0.561846
1536.96, 0.562486
1537.41, 0.563127
1537.87, 0.563233
1538.32, 0.562700
1538.78, 0.562486
1539.24, 0.562913
1539.7, 0.563340
1540.15, 0.563660
1540.61, 0.563980
1541.07, 0.564087
1541.53, 0.563874
1541.98, 0.564194
1542.44, 0.564514
1542.9, 0.564621
1543.36, 0.564834
1543.82, 0.564834
1544.28, 0.564301
1544.74, 0.564407
1545.2, 0.564941
1545.66, 0.565155
1546.12, 0.565155
1546.59, 0.565261
1547.05, 0.565688
1547.51, 0.565795
1547.97, 0.565902
1548.43, 0.566008
1548.9, 0.566435
1549.36, 0.566755
1549.82, 0.566222
1550.29, 0.566008
1550.75, 0.565688
1551.21, 0.566329
1551.68, 0.566542
1552.14, 0.566755
1552.61, 0.567289
1553.07, 0.567396
1553.54, 0.567076
1554.0, 0.567289
1554.47, 0.567182
1554.93, 0.567396
1555.4, 0.567716
1555.87, 0.568357
1556.34, 0.568890
1556.8, 0.568783
1557.27, 0.568143
1557.74, 0.568250
1558.21, 0.568250
1558.68, 0.568570
1559.14, 0.568677
1559.61, 0.568890
1560.08, 0.568783
1560.55, 0.568783
1561.02, 0.569104
1561.49, 0.569531
1561.96, 0.570171
1562.43, 0.570598
1562.9, 0.570705
1563.38, 0.570598
1563.85, 0.570064
1564.32, 0.570064
1564.79, 0.570278
1565.26, 0.570171
1565.74, 0.570384
1566.21, 0.570598
1566.68, 0.570278
1567.16, 0.570598
1567.63, 0.570918
1568.1, 0.570705
1568.58, 0.570278
1569.05, 0.570811
1569.53, 0.571665
1570.0, 0.571665
1570.48, 0.571345
1570.96, 0.571985
1571.43, 0.572092
1571.91, 0.571772
1572.39, 0.571772
1572.86, 0.572092
1573.34, 0.571559
1573.82, 0.571559
1574.3, 0.572626
1574.77, 0.573480
1575.25, 0.573053
1575.73, 0.572412
1576.21, 0.572733
1576.69, 0.572946
1577.17, 0.573053
1577.65, 0.573373
1578.13, 0.573373
1578.61, 0.573480
1579.09, 0.573053
1579.57, 0.573160
1580.05, 0.573480
1580.54, 0.573907
1581.02, 0.573800
1581.5, 0.573800
1581.98, 0.573693
1582.47, 0.573800
1582.95, 0.574013
1583.43, 0.574013
1583.92, 0.574013
1584.4, 0.574334
1584.88, 0.574440
1585.37, 0.574547
1585.85, 0.575187
1586.34, 0.575401
1586.82, 0.574867
1587.31, 0.574654
1587.8, 0.574547
1588.28, 0.575081
1588.77, 0.575828
1589.26, 0.576041
1589.74, 0.575721
1590.23, 0.575721
1590.72, 0.575935
1591.21, 0.576468
1591.7, 0.576575
1592.19, 0.576255
1592.67, 0.576468
1593.16, 0.576468
1593.65, 0.576255
1594.14, 0.576575
1594.63, 0.577002
1595.12, 0.577322
1595.61, 0.577215
1596.11, 0.576361
1596.6, 0.576468
1597.09, 0.577109
1597.58, 0.577642
1598.08, 0.577856
1598.57, 0.577429
1599.06, 0.577322
1599.55, 0.577963
1600.05, 0.578069
1600.54, 0.577963
1601.04, 0.578603
1601.53, 0.579137
1602.03, 0.579137
1602.52, 0.578710
1603.02, 0.579243
1603.51, 0.579670
1604.01, 0.579777
1604.5, 0.579990
1605.0, 0.580097
1605.5, 0.579777
1606.0, 0.579563
1606.49, 0.579884
1606.99, 0.580417
1607.49, 0.580631
1607.99, 0.581165
1608.49, 0.581165
1608.99, 0.580738
1609.49, 0.581271
1609.99, 0.581698
1610.49, 0.581378
1610.99, 0.581698
1611.49, 0.581591
1611.99, 0.581698
1612.49, 0.581698
1612.99, 0.582339
1613.49, 0.582766
1614.0, 0.582979
1614.5, 0.582872
1615.0, 0.582979
1615.51, 0.583299
1616.01, 0.583619
1616.51, 0.583726
1617.02, 0.583726
1617.52, 0.583299
1618.03, 0.583619
1618.53, 0.584260
1619.04, 0.584900
1619.54, 0.585007
1620.05, 0.584580
1620.55, 0.584260
1621.06, 0.584793
1621.57, 0.585007
1622.08, 0.584900
1622.58, 0.584900
1623.09, 0.584900
1623.6, 0.585114
1624.11, 0.585541
1624.62, 0.585861
1625.13, 0.586715
1625.64, 0.586288
1626.15, 0.585967
1626.66, 0.585647
1627.17, 0.585647
1627.68, 0.585967
1628.19, 0.586288
1628.7, 0.586608
1629.21, 0.586501
1629.72, 0.586928
1630.24, 0.587142
1630.75, 0.587035
1631.26, 0.586821
1631.78, 0.587248
1632.29, 0.587355
1632.8, 0.587462
1633.32, 0.588102
1633.83, 0.588209
1634.35, 0.587889
1634.86, 0.587675
1635.38, 0.588316
1635.9, 0.588636
1636.41, 0.588529
1636.93, 0.588102
1637.45, 0.588316
1637.96, 0.588636
1638.48, 0.589170
1639.0, 0.589170
1639.52, 0.589170
1640.04, 0.589490
1640.56, 0.589596
1641.08, 0.589170
1641.59, 0.589170
1642.11, 0.589383
1642.63, 0.589276
1643.16, 0.589276
1643.68, 0.589917
1644.2, 0.590344
1644.72, 0.590664
1645.24, 0.590557
1645.76, 0.589810
1646.29, 0.589703
1646.81, 0.589810
1647.33, 0.589917
1647.86, 0.590237
1648.38, 0.590771
1648.9, 0.590664
1649.43, 0.590557
1649.95, 0.590664
1650.48, 0.590557
1651.0, 0.591197
1651.53, 0.591304
1652.06, 0.591304
1652.58, 0.591411
1653.11, 0.591624
1653.64, 0.591838
1654.17, 0.591731
1654.69, 0.591624
1655.22, 0.591838
1655.75, 0.592265
1656.28, 0.592265
1656.81, 0.592265
1657.34, 0.592585
1657.87, 0.592798
1658.4, 0.592478
1658.93, 0.592372
1659.46, 0.592372
1659.99, 0.592478
1660.52, 0.592905
1661.05, 0.592372
1661.59, 0.592265
1662.12, 0.592798
1662.65, 0.593546
1663.19, 0.593759
1663.72, 0.593332
1664.26, 0.593332
1664.79, 0.593332
1665.32, 0.593439
1665.86, 0.593332
1666.39, 0.593973
1666.93, 0.594506
1667.47, 0.594613
1668.0, 0.594293
1668.54, 0.594506
1669.08, 0.594613
1669.61, 0.594506
1670.15, 0.594720
1670.69, 0.595147
1671.23, 0.595360
1671.77, 0.595574
1672.31, 0.596107
1672.85, 0.595787
1673.39, 0.595894
1673.93, 0.595467
1674.47, 0.595147
1675.01, 0.595467
1675.55, 0.596000
1676.09, 0.596321
1676.64, 0.596321
1677.18, 0.596321
1677.72, 0.596641
1678.26, 0.596854
1678.81, 0.596961
1679.35, 0.596748
1679.89, 0.596854
1680.44, 0.597175
1680.98, 0.597281
1681.53, 0.597708
1682.07, 0.598028
1682.62, 0.597602
1683.17, 0.597815
1683.71, 0.598242
1684.26, 0.598776
1684.81, 0.598882
1685.36, 0.598669
1685.9, 0.598455
1686.45, 0.598349
1687.0, 0.598562
1687.55, 0.598562
1688.1, 0.598669
1688.65, 0.599203
1689.2, 0.599629
1689.75, 0.599629
1690.3, 0.599523
1690.85, 0.599203
1691.41, 0.599096
1691.96, 0.599203
1692.51, 0.599203
1693.06, 0.599736
1693.61, 0.600056
1694.17, 0.600056
1694.72, 0.600056
1695.28, 0.600483
1695.83, 0.600804
1696.39, 0.600590
1696.94, 0.600377
1697.5, 0.600163
1698.05, 0.600804
1698.61, 0.601337
1699.17, 0.601337
1699.72, 0.601230
1700.28, 0.600910
1700.84, 0.601017
1701.4, 0.601551
1701.95, 0.601551
1702.51, 0.601124
1703.07, 0.601337
1703.63, 0.601444
1704.19, 0.601551
1704.75, 0.601657
1705.31, 0.601230
1705.88, 0.601337
1706.44, 0.601551
1707.0, 0.601657
1707.56, 0.601871
1708.12, 0.601764
1708.69, 0.601871
1709.25, 0.601871
1709.81, 0.601871
1710.38, 0.602084
1710.94, 0.601978
1711.51, 0.601764
1712.07, 0.601871
1712.64, 0.602298
1713.2, 0.602405
1713.77, 0.602298
1714.34, 0.602191
1714.9, 0.602298
1715.47, 0.602618
1716.04, 0.602405
1716.61, 0.602511
1717.18, 0.602831
1717.74, 0.602938
1718.31, 0.602618
1718.88, 0.602298
1719.45, 0.602191
1720.02, 0.602511
1720.59, 0.602511
1721.17, 0.602511
1721.74, 0.602725
1722.31, 0.602938
1722.88, 0.603365
1723.45, 0.603579
1724.03, 0.602938
1724.6, 0.602725
1725.18, 0.603258
1725.75, 0.603258
1726.33, 0.603365
1726.9, 0.603258
1727.48, 0.603152
1728.05, 0.603365
1728.63, 0.603258
1729.2, 0.603365
1729.78, 0.603792
1730.36, 0.603792
1730.94, 0.603899
1731.51, 0.603792
1732.09, 0.603579
1732.67, 0.603685
1733.25, 0.603899
1733.83, 0.603792
1734.41, 0.603792
1734.99, 0.604006
1735.57, 0.604112
1736.15, 0.604112
1736.73, 0.604326
1737.32, 0.604432
1737.9, 0.604646
1738.48, 0.604539
1739.07, 0.604646
1739.65, 0.604859
1740.23, 0.604753
1740.82, 0.604859
1741.4, 0.604753
1741.99, 0.604753
1742.57, 0.605073
1743.16, 0.605500
1743.74, 0.605820
1744.33, 0.605820
1744.92, 0.605393
1745.51, 0.605073
1746.09, 0.605606
1746.68, 0.605713
1747.27, 0.605713
1747.86, 0.605927
1748.45, 0.606033
1749.04, 0.606247
1749.63, 0.606247
1750.22, 0.606460
1750.81, 0.606674
1751.4, 0.606994
1751.99, 0.606994
1752.59, 0.606887
1753.18, 0.606460
1753.77, 0.606354
1754.37, 0.606674
1754.96, 0.606994
1755.56, 0.606674
1756.15, 0.606354
1756.74, 0.606354
1757.34, 0.606674
1757.94, 0.607208
1758.53, 0.607421
1759.13, 0.607421
1759.73, 0.607101
1760.32, 0.607208
1760.92, 0.607528
1761.52, 0.607634
1762.12, 0.607848
1762.72, 0.607741
1763.32, 0.607528
1763.92, 0.607634
1764.52, 0.608168
1765.12, 0.608595
1765.72, 0.608702
1766.32, 0.608168
1766.92, 0.607955
1767.53, 0.607741
1768.13, 0.608168
1768.73, 0.608382
1769.34, 0.608061
1769.94, 0.608168
1770.55, 0.608382
1771.15, 0.608595
1771.76, 0.608809
1772.36, 0.608702
1772.97, 0.608488
1773.57, 0.608595
1774.18, 0.608488
1774.79, 0.608915
1775.4, 0.609022
1776.0, 0.608809
1776.61, 0.609022
1777.22, 0.608809
1777.83, 0.608595
1778.44, 0.608809
1779.05, 0.608915
1779.66, 0.608595
1780.27, 0.608275
1780.88, 0.608382
1781.5, 0.608809
1782.11, 0.608702
1782.72, 0.608488
1783.33, 0.608595
1783.95, 0.608595
1784.56, 0.608595
1785.18, 0.608915
1785.79, 0.608809
1786.41, 0.608702
1787.02, 0.608595
1787.64, 0.608809
1788.26, 0.608915
1788.87, 0.608915
1789.49, 0.608809
1790.11, 0.608595
1790.73, 0.608595
1791.35, 0.609022
1791.96, 0.608915
1792.58, 0.608809
1793.21, 0.608488
1793.83, 0.608488
1794.45, 0.608702
1795.07, 0.608702
1795.69, 0.608488
1796.31, 0.608702
1796.93, 0.608488
1797.56, 0.608382
1798.18, 0.608702
1798.8, 0.608915
1799.43, 0.609129
1800.05, 0.608915
1800.68, 0.608809
1801.3, 0.608595
1801.93, 0.608382
1802.56, 0.608061
1803.18, 0.607741
1803.81, 0.607741
1804.44, 0.608061
1805.07, 0.608702
1805.7, 0.608809
1806.33, 0.608488
1806.95, 0.608702
1807.58, 0.608915
1808.22, 0.609022
1808.85, 0.608915
1809.48, 0.608595
1810.11, 0.608382
1810.74, 0.608702
1811.38, 0.608702
1812.01, 0.608702
1812.64, 0.608702
1813.28, 0.608595
1813.91, 0.608702
1814.55, 0.608809
1815.18, 0.609235
1815.82, 0.609129
1816.45, 0.609129
1817.09, 0.609235
1817.73, 0.609235
1818.36, 0.609342
1819.0, 0.609342
1819.64, 0.609342
1820.28, 0.609662
1820.92, 0.609876
1821.56, 0.610089
1822.2, 0.609662
1822.84, 0.609876
1823.48, 0.610196
1824.12, 0.609983
1824.76, 0.609769
1825.41, 0.609983
1826.05, 0.609983
1826.69, 0.609983
1827.34, 0.610196
1827.98, 0.610303
1828.63, 0.610196
1829.27, 0.610196
1829.92, 0.610410
1830.56, 0.610623
1831.21, 0.610410
1831.86, 0.610303
1832.5, 0.610303
1833.15, 0.610516
1833.8, 0.610410
1834.45, 0.610623
1835.1, 0.610623
1835.75, 0.610730
1836.4, 0.610730
1837.05, 0.610943
1837.7, 0.611157
1838.35, 0.610943
1839.01, 0.610837
1839.66, 0.611584
1840.31, 0.611370
1840.96, 0.611050
1841.62, 0.611370
1842.27, 0.611050
1842.93, 0.610516
1843.58, 0.610623
1844.24, 0.611050
1844.9, 0.611157
1845.55, 0.611157
1846.21, 0.611477
1846.87, 0.611370
1847.53, 0.611370
1848.18, 0.611157
1848.84, 0.611157
1849.5, 0.611157
1850.16, 0.611263
1850.82, 0.611157
1851.48, 0.610943
1852.14, 0.610516
1852.81, 0.610623
1853.47, 0.610943
1854.13, 0.611050
1854.8, 0.610943
1855.46, 0.611050
1856.12, 0.611370
1856.79, 0.611584
1857.45, 0.611584
1858.12, 0.611157
1858.79, 0.610837
1859.45, 0.610943
1860.12, 0.610410
1860.79, 0.609876
1861.46, 0.609556
1862.12, 0.609769
1862.79, 0.610196
1863.46, 0.610410
1864.13, 0.610196
1864.8, 0.609876
1865.48, 0.609342
1866.15, 0.609022
1866.82, 0.609129
1867.49, 0.609342
1868.16, 0.609235
1868.84, 0.609022
1869.51, 0.608915
1870.19, 0.609022
1870.86, 0.609022
1871.54, 0.608488
1872.21, 0.608275
1872.89, 0.608382
1873.56, 0.607955
1874.24, 0.607314
1874.92, 0.606994
1875.6, 0.606781
1876.28, 0.606567
1876.96, 0.606460
1877.64, 0.606140
1878.32, 0.605820
1879.0, 0.605606
1879.68, 0.605500
1880.36, 0.605180
1881.04, 0.604966
1881.73, 0.604432
1882.41, 0.604326
1883.09, 0.604006
1883.78, 0.603685
1884.46, 0.603472
1885.15, 0.602831
1885.83, 0.602405
1886.52, 0.601978
1887.21, 0.601337
1887.89, 0.600804
1888.58, 0.600377
1889.27, 0.600270
1889.96, 0.600163
1890.65, 0.599416
1891.34, 0.598989
1892.03, 0.598882
1892.72, 0.598135
1893.41, 0.597602
1894.1, 0.597175
1894.79, 0.596748
1895.49, 0.596214
1896.18, 0.595894
1896.87, 0.595680
1897.57, 0.595147
1898.26, 0.594826
1898.96, 0.594826
1899.65, 0.594613
1900.35, 0.593759
1901.05, 0.592905
1901.74, 0.592265
1902.44, 0.591945
1903.14, 0.591838
1903.84, 0.591304
1904.54, 0.591197
1905.24, 0.591304
1905.94, 0.590984
1906.64, 0.590557
1907.34, 0.590130
1908.04, 0.589490
1908.75, 0.588849
1909.45, 0.588422
1910.15, 0.588422
1910.86, 0.588743
1911.56, 0.588636
1912.27, 0.588422
1912.97, 0.588529
1913.68, 0.588849
1914.39, 0.588209
1915.09, 0.587675
1915.8, 0.587569
1916.51, 0.587462
1917.22, 0.587355
1917.93, 0.587142
1918.64, 0.587248
1919.35, 0.587142
1920.06, 0.587248
1920.77, 0.587569
1921.48, 0.587355
1922.19, 0.587142
1922.91, 0.586821
1923.62, 0.587142
1924.33, 0.587248
1925.05, 0.587355
1925.76, 0.587035
1926.48, 0.586394
1927.19, 0.586608
1927.91, 0.586928
1928.63, 0.586821
1929.35, 0.586288
1930.07, 0.586394
1930.78, 0.586715
1931.5, 0.586715
1932.22, 0.586715
1932.94, 0.586715
1933.66, 0.586715
1934.39, 0.586715
1935.11, 0.586715
1935.83, 0.586608
1936.55, 0.586394
1937.28, 0.586821
1938.0, 0.587355
1938.73, 0.587355
1939.45, 0.587142
1940.18, 0.587142
1940.9, 0.587142
1941.63, 0.587142
1942.36, 0.587142
1943.09, 0.586928
1943.81, 0.586821
1944.54, 0.587035
1945.27, 0.587142
1946.0, 0.586928
1946.73, 0.587142
1947.47, 0.587355
1948.2, 0.587035
1948.93, 0.587462
1949.66, 0.587675
1950.4, 0.587889
1951.13, 0.587889
1951.86, 0.587782
1952.6, 0.587569
1953.34, 0.587355
1954.07, 0.587355
1954.81, 0.587569
1955.55, 0.587569
1956.29, 0.587248
1957.02, 0.587142
1957.76, 0.587142
1958.5, 0.587569
1959.24, 0.587569
1959.98, 0.587248
1960.72, 0.587355
1961.47, 0.587462
1962.21, 0.587569
1962.95, 0.587782
1963.7, 0.587782
1964.44, 0.587462
1965.18, 0.587355
1965.93, 0.587569
1966.67, 0.587462
1967.42, 0.587462
1968.17, 0.587782
1968.92, 0.587675
1969.66, 0.587569
1970.41, 0.587675
1971.16, 0.587462
1971.91, 0.587462
1972.66, 0.587248
1973.41, 0.587355
1974.16, 0.587675
1974.92, 0.587462
1975.67, 0.587569
1976.42, 0.587675
1977.18, 0.587675
1977.93, 0.587248
1978.69, 0.587248
1979.44, 0.587248
1980.2, 0.587248
1980.95, 0.587248
1981.71, 0.587248
1982.47, 0.587142
1983.23, 0.587248
1983.99, 0.587248
1984.74, 0.587462
1985.51, 0.587462
1986.27, 0.587355
1987.03, 0.587462
1987.79, 0.587462
1988.55, 0.587355
1989.32, 0.587248
1990.08, 0.587355
1990.84, 0.587675
1991.61, 0.587355
1992.37, 0.587355
1993.14, 0.587675
1993.9, 0.587889
1994.67, 0.587889
1995.44, 0.587675
