Database of Origin, USGS Spectral Database
Sample Description, See USGS database for additional info
Date Added,2016-08-03 20:52:57.738662

Data ID,USGS_alm08          
Sample ID, almandine_ws477.811
Mineral Name, almandine
Material Class,Nesosilicate

Wavelength
1399.61, 0.269934
1399.99, 0.269985
1400.37, 0.270498
1400.74, 0.270190
1401.12, 0.269729
1401.5, 0.269934
1401.88, 0.270549
1402.26, 0.270549
1402.64, 0.270446
1403.02, 0.270651
1403.4, 0.270549
1403.78, 0.270293
1404.16, 0.270549
1404.54, 0.270344
1404.92, 0.270190
1405.3, 0.270395
1405.68, 0.270600
1406.06, 0.270600
1406.44, 0.270446
1406.83, 0.270344
1407.21, 0.270805
1407.59, 0.271267
1407.97, 0.270908
1408.35, 0.270703
1408.74, 0.270959
1409.12, 0.271010
1409.5, 0.271010
1409.89, 0.270805
1410.27, 0.270908
1410.65, 0.271010
1411.04, 0.270651
1411.42, 0.270857
1411.81, 0.270959
1412.19, 0.270754
1412.58, 0.270600
1412.96, 0.270857
1413.35, 0.271523
1413.73, 0.271574
1414.12, 0.271164
1414.5, 0.270959
1414.89, 0.271318
1415.28, 0.271677
1415.66, 0.271779
1416.05, 0.271472
1416.44, 0.271574
1416.82, 0.271831
1417.21, 0.272036
1417.6, 0.271985
1417.98, 0.271933
1418.37, 0.271933
1418.76, 0.272190
1419.15, 0.272241
1419.54, 0.272497
1419.93, 0.272856
1420.32, 0.272856
1420.71, 0.272805
1421.09, 0.272497
1421.48, 0.272600
1421.88, 0.272702
1422.27, 0.272805
1422.66, 0.273164
1423.05, 0.273215
1423.44, 0.273112
1423.83, 0.273266
1424.22, 0.273318
1424.61, 0.273318
1425.0, 0.273318
1425.39, 0.273471
1425.78, 0.273728
1426.18, 0.273728
1426.57, 0.273676
1426.96, 0.273881
1427.36, 0.274138
1427.75, 0.274087
1428.14, 0.274189
1428.54, 0.274240
1428.93, 0.274394
1429.32, 0.274497
1429.72, 0.274702
1430.11, 0.274599
1430.51, 0.274753
1430.9, 0.275009
1431.3, 0.274753
1431.69, 0.274804
1432.09, 0.275163
1432.48, 0.275009
1432.88, 0.274804
1433.28, 0.275214
1433.67, 0.275522
1434.07, 0.275573
1434.46, 0.275471
1434.86, 0.275522
1435.26, 0.275625
1435.66, 0.275778
1436.05, 0.275625
1436.45, 0.275676
1436.85, 0.275932
1437.25, 0.275984
1437.65, 0.276137
1438.05, 0.276240
1438.44, 0.276445
1438.84, 0.276650
1439.24, 0.276855
1439.64, 0.277009
1440.04, 0.276906
1440.44, 0.276547
1440.84, 0.276445
1441.24, 0.276753
1441.65, 0.276958
1442.05, 0.277009
1442.45, 0.277317
1442.85, 0.277265
1443.25, 0.277573
1443.65, 0.277675
1444.05, 0.277470
1444.46, 0.277265
1444.86, 0.277573
1445.26, 0.278034
1445.67, 0.278239
1446.07, 0.278188
1446.47, 0.278086
1446.88, 0.278034
1447.28, 0.277932
1447.68, 0.277932
1448.09, 0.278086
1448.49, 0.278444
1448.9, 0.278598
1449.3, 0.278650
1449.71, 0.278803
1450.11, 0.278701
1450.52, 0.278701
1450.93, 0.278752
1451.33, 0.278957
1451.74, 0.279111
1452.14, 0.279367
1452.55, 0.279521
1452.96, 0.279624
1453.36, 0.279624
1453.77, 0.279675
1454.18, 0.279624
1454.59, 0.279983
1455.0, 0.280188
1455.41, 0.279880
1455.81, 0.279572
1456.22, 0.279521
1456.63, 0.279880
1457.04, 0.280341
1457.45, 0.280444
1457.86, 0.280444
1458.27, 0.280341
1458.68, 0.280239
1459.09, 0.280444
1459.5, 0.280752
1459.91, 0.280803
1460.32, 0.280752
1460.74, 0.280803
1461.15, 0.280854
1461.56, 0.280803
1461.97, 0.281059
1462.39, 0.281110
1462.8, 0.281213
1463.21, 0.281213
1463.62, 0.281162
1464.04, 0.281059
1464.45, 0.281213
1464.86, 0.281572
1465.28, 0.281726
1465.69, 0.281572
1466.11, 0.281367
1466.52, 0.281418
1466.94, 0.281828
1467.35, 0.282136
1467.77, 0.282136
1468.18, 0.282238
1468.6, 0.282290
1469.02, 0.282187
1469.43, 0.282238
1469.85, 0.282341
1470.27, 0.282392
1470.68, 0.282290
1471.1, 0.282392
1471.52, 0.282802
1471.94, 0.282956
1472.35, 0.282802
1472.77, 0.282905
1473.19, 0.282956
1473.61, 0.283007
1474.03, 0.283059
1474.45, 0.283264
1474.87, 0.283469
1475.29, 0.283315
1475.71, 0.283418
1476.13, 0.283623
1476.55, 0.283674
1476.97, 0.283828
1477.39, 0.283828
1477.81, 0.284033
1478.23, 0.284084
1478.65, 0.284084
1479.07, 0.284340
1479.5, 0.284751
1479.92, 0.284751
1480.34, 0.284597
1480.76, 0.284597
1481.19, 0.285007
1481.61, 0.285109
1482.03, 0.285109
1482.46, 0.284956
1482.88, 0.285058
1483.31, 0.285417
1483.73, 0.285571
1484.16, 0.285622
1484.58, 0.285417
1485.01, 0.285571
1485.43, 0.285571
1485.86, 0.285673
1486.28, 0.285827
1486.71, 0.286032
1487.14, 0.286442
1487.56, 0.286801
1487.99, 0.286391
1488.42, 0.286135
1488.84, 0.286442
1489.27, 0.286545
1489.7, 0.286442
1490.13, 0.286186
1490.56, 0.286648
1490.98, 0.287058
1491.41, 0.287006
1491.84, 0.287058
1492.27, 0.287365
1492.7, 0.287365
1493.13, 0.287519
1493.56, 0.287775
1493.99, 0.287827
1494.42, 0.287775
1494.85, 0.287827
1495.29, 0.287929
1495.72, 0.288134
1496.15, 0.288339
1496.58, 0.288391
1497.01, 0.288391
1497.44, 0.288288
1497.88, 0.288134
1498.31, 0.288288
1498.74, 0.288750
1499.18, 0.289006
1499.61, 0.289057
1500.04, 0.288852
1500.48, 0.288545
1500.91, 0.288801
1501.35, 0.289006
1501.78, 0.289108
1502.22, 0.289108
1502.65, 0.289262
1503.09, 0.289519
1503.53, 0.289519
1503.96, 0.289262
1504.4, 0.289057
1504.83, 0.289211
1505.27, 0.289570
1505.71, 0.289621
1506.15, 0.289724
1506.58, 0.289826
1507.02, 0.289775
1507.46, 0.290031
1507.9, 0.290236
1508.34, 0.290083
1508.78, 0.289980
1509.21, 0.289724
1509.66, 0.289929
1510.09, 0.290134
1510.53, 0.290185
1510.97, 0.290083
1511.42, 0.290185
1511.86, 0.290236
1512.3, 0.290493
1512.74, 0.290800
1513.18, 0.290800
1513.62, 0.290698
1514.06, 0.290800
1514.51, 0.290647
1514.95, 0.290493
1515.39, 0.290493
1515.83, 0.290852
1516.28, 0.291005
1516.72, 0.290954
1517.16, 0.291211
1517.61, 0.291262
1518.05, 0.291108
1518.5, 0.291108
1518.94, 0.290954
1519.39, 0.291364
1519.83, 0.291672
1520.28, 0.291416
1520.73, 0.291416
1521.17, 0.291467
1521.62, 0.291262
1522.07, 0.291211
1522.51, 0.291569
1522.96, 0.291723
1523.41, 0.291467
1523.85, 0.291262
1524.3, 0.291467
1524.75, 0.291672
1525.2, 0.291826
1525.65, 0.291877
1526.1, 0.291826
1526.55, 0.291672
1527.0, 0.291723
1527.45, 0.291928
1527.9, 0.291928
1528.35, 0.292082
1528.8, 0.291928
1529.25, 0.291621
1529.7, 0.291826
1530.15, 0.292082
1530.6, 0.292031
1531.05, 0.291980
1531.51, 0.292185
1531.96, 0.292082
1532.41, 0.292031
1532.87, 0.292441
1533.32, 0.292595
1533.77, 0.292544
1534.23, 0.292544
1534.68, 0.292441
1535.14, 0.292390
1535.59, 0.292697
1536.05, 0.292749
1536.5, 0.292492
1536.96, 0.292544
1537.41, 0.292749
1537.87, 0.292595
1538.32, 0.292544
1538.78, 0.292749
1539.24, 0.293159
1539.7, 0.293313
1540.15, 0.293261
1540.61, 0.293210
1541.07, 0.293056
1541.53, 0.293108
1541.98, 0.293056
1542.44, 0.293210
1542.9, 0.293466
1543.36, 0.293415
1543.82, 0.293313
1544.28, 0.293313
1544.74, 0.293415
1545.2, 0.293415
1545.66, 0.293518
1546.12, 0.293518
1546.59, 0.293466
1547.05, 0.293415
1547.51, 0.293466
1547.97, 0.293620
1548.43, 0.293774
1548.9, 0.293620
1549.36, 0.293466
1549.82, 0.293620
1550.29, 0.293877
1550.75, 0.293825
1551.21, 0.293723
1551.68, 0.293671
1552.14, 0.293928
1552.61, 0.294082
1553.07, 0.294235
1553.54, 0.294235
1554.0, 0.294235
1554.47, 0.294235
1554.93, 0.294338
1555.4, 0.294441
1555.87, 0.294389
1556.34, 0.294184
1556.8, 0.294082
1557.27, 0.294030
1557.74, 0.294082
1558.21, 0.294235
1558.68, 0.294594
1559.14, 0.294748
1559.61, 0.294748
1560.08, 0.294799
1560.55, 0.294799
1561.02, 0.294748
1561.49, 0.294799
1561.96, 0.294594
1562.43, 0.294389
1562.9, 0.294543
1563.38, 0.294748
1563.85, 0.294646
1564.32, 0.294594
1564.79, 0.294594
1565.26, 0.294646
1565.74, 0.294748
1566.21, 0.294953
1566.68, 0.294953
1567.16, 0.295056
1567.63, 0.295107
1568.1, 0.295107
1568.58, 0.295056
1569.05, 0.294799
1569.53, 0.294697
1570.0, 0.294902
1570.48, 0.294697
1570.96, 0.294748
1571.43, 0.294953
1571.91, 0.294799
1572.39, 0.294697
1572.86, 0.294697
1573.34, 0.294748
1573.82, 0.294902
1574.3, 0.295107
1574.77, 0.294953
1575.25, 0.294748
1575.73, 0.294646
1576.21, 0.294799
1576.69, 0.294799
1577.17, 0.294799
1577.65, 0.294902
1578.13, 0.294851
1578.61, 0.294902
1579.09, 0.294799
1579.57, 0.294851
1580.05, 0.294851
1580.54, 0.294748
1581.02, 0.294646
1581.5, 0.294543
1581.98, 0.294799
1582.47, 0.294748
1582.95, 0.294748
1583.43, 0.294646
1583.92, 0.294543
1584.4, 0.294646
1584.88, 0.294594
1585.37, 0.294492
1585.85, 0.294492
1586.34, 0.294441
1586.82, 0.294441
1587.31, 0.294646
1587.8, 0.294646
1588.28, 0.294441
1588.77, 0.294441
1589.26, 0.294799
1589.74, 0.294697
1590.23, 0.294646
1590.72, 0.294646
1591.21, 0.294697
1591.7, 0.294594
1592.19, 0.294492
1592.67, 0.294287
1593.16, 0.294287
1593.65, 0.294441
1594.14, 0.294543
1594.63, 0.294543
1595.12, 0.294441
1595.61, 0.294441
1596.11, 0.294492
1596.6, 0.294492
1597.09, 0.294389
1597.58, 0.294235
1598.08, 0.294287
1598.57, 0.294492
1599.06, 0.294851
1599.55, 0.294748
1600.05, 0.294594
1600.54, 0.294338
1601.04, 0.294338
1601.53, 0.294441
1602.03, 0.294594
1602.52, 0.294492
1603.02, 0.294441
1603.51, 0.294543
1604.01, 0.294902
1604.5, 0.294902
1605.0, 0.294697
1605.5, 0.294646
1606.0, 0.294851
1606.49, 0.294748
1606.99, 0.294748
1607.49, 0.294748
1607.99, 0.294902
1608.49, 0.295004
1608.99, 0.294851
1609.49, 0.294697
1609.99, 0.294748
1610.49, 0.294748
1610.99, 0.294799
1611.49, 0.294902
1611.99, 0.294697
1612.49, 0.294338
1612.99, 0.294646
1613.49, 0.294748
1614.0, 0.294594
1614.5, 0.294697
1615.0, 0.294799
1615.51, 0.294851
1616.01, 0.294851
1616.51, 0.294697
1617.02, 0.294799
1617.52, 0.294902
1618.03, 0.294953
1618.53, 0.294902
1619.04, 0.294902
1619.54, 0.294799
1620.05, 0.295004
1620.55, 0.295107
1621.06, 0.295107
1621.57, 0.295158
1622.08, 0.294953
1622.58, 0.294851
1623.09, 0.294953
1623.6, 0.294953
1624.11, 0.295004
1624.62, 0.294953
1625.13, 0.295056
1625.64, 0.295056
1626.15, 0.295004
1626.66, 0.294902
1627.17, 0.294953
1627.68, 0.294799
1628.19, 0.294646
1628.7, 0.294646
1629.21, 0.294748
1629.72, 0.294799
1630.24, 0.294799
1630.75, 0.294594
1631.26, 0.294492
1631.78, 0.294697
1632.29, 0.294646
1632.8, 0.294851
1633.32, 0.295210
1633.83, 0.294902
1634.35, 0.294492
1634.86, 0.294543
1635.38, 0.294748
1635.9, 0.294646
1636.41, 0.294646
1636.93, 0.294646
1637.45, 0.294697
1637.96, 0.294851
1638.48, 0.294799
1639.0, 0.294594
1639.52, 0.294646
1640.04, 0.294543
1640.56, 0.294389
1641.08, 0.294338
1641.59, 0.294543
1642.11, 0.294646
1642.63, 0.294799
1643.16, 0.294799
1643.68, 0.294748
1644.2, 0.294697
1644.72, 0.294543
1645.24, 0.294287
1645.76, 0.294287
1646.29, 0.294441
1646.81, 0.294389
1647.33, 0.294389
1647.86, 0.294543
1648.38, 0.294441
1648.9, 0.294338
1649.43, 0.294235
1649.95, 0.294287
1650.48, 0.294235
1651.0, 0.293928
1651.53, 0.293928
1652.06, 0.293979
1652.58, 0.293928
1653.11, 0.293928
1653.64, 0.293979
1654.17, 0.294030
1654.69, 0.294030
1655.22, 0.293928
1655.75, 0.293928
1656.28, 0.294030
1656.81, 0.294235
1657.34, 0.294389
1657.87, 0.294235
1658.4, 0.294030
1658.93, 0.293928
1659.46, 0.293979
1659.99, 0.293979
1660.52, 0.294133
1661.05, 0.294030
1661.59, 0.293723
1662.12, 0.293723
1662.65, 0.293877
1663.19, 0.293774
1663.72, 0.293723
1664.26, 0.293928
1664.79, 0.294082
1665.32, 0.293877
1665.86, 0.293723
1666.39, 0.293723
1666.93, 0.293877
1667.47, 0.293979
1668.0, 0.293979
1668.54, 0.293928
1669.08, 0.293979
1669.61, 0.293979
1670.15, 0.293928
1670.69, 0.293774
1671.23, 0.293825
1671.77, 0.293877
1672.31, 0.293979
1672.85, 0.294184
1673.39, 0.294184
1673.93, 0.294030
1674.47, 0.294082
1675.01, 0.294338
1675.55, 0.294338
1676.09, 0.294133
1676.64, 0.294287
1677.18, 0.294235
1677.72, 0.294082
1678.26, 0.294184
1678.81, 0.294338
1679.35, 0.294287
1679.89, 0.294235
1680.44, 0.294235
1680.98, 0.294235
1681.53, 0.294235
1682.07, 0.294441
1682.62, 0.294389
1683.17, 0.294235
1683.71, 0.294287
1684.26, 0.294543
1684.81, 0.294646
1685.36, 0.294492
1685.9, 0.294338
1686.45, 0.294389
1687.0, 0.294492
1687.55, 0.294543
1688.1, 0.294543
1688.65, 0.294492
1689.2, 0.294594
1689.75, 0.294441
1690.3, 0.294441
1690.85, 0.294646
1691.41, 0.294697
1691.96, 0.294748
1692.51, 0.294953
1693.06, 0.294902
1693.61, 0.294441
1694.17, 0.294492
1694.72, 0.294748
1695.28, 0.294697
1695.83, 0.294594
1696.39, 0.294748
1696.94, 0.295056
1697.5, 0.295004
1698.05, 0.294851
1698.61, 0.294953
1699.17, 0.294953
1699.72, 0.294851
1700.28, 0.294902
1700.84, 0.295158
1701.4, 0.295210
1701.95, 0.294953
1702.51, 0.294902
1703.07, 0.295107
1703.63, 0.295261
1704.19, 0.295107
1704.75, 0.295004
1705.31, 0.295261
1705.88, 0.295466
1706.44, 0.295261
1707.0, 0.295004
1707.56, 0.294953
1708.12, 0.294953
1708.69, 0.295261
1709.25, 0.295312
1709.81, 0.295363
1710.38, 0.295261
1710.94, 0.295261
1711.51, 0.295415
1712.07, 0.295415
1712.64, 0.295363
1713.2, 0.295312
1713.77, 0.295261
1714.34, 0.295312
1714.9, 0.295466
1715.47, 0.295415
1716.04, 0.295363
1716.61, 0.295466
1717.18, 0.295517
1717.74, 0.295517
1718.31, 0.295517
1718.88, 0.295517
1719.45, 0.295517
1720.02, 0.295466
1720.59, 0.295312
1721.17, 0.295363
1721.74, 0.295363
1722.31, 0.295363
1722.88, 0.295517
1723.45, 0.295671
1724.03, 0.295722
1724.6, 0.295927
1725.18, 0.295979
1725.75, 0.295722
1726.33, 0.295671
1726.9, 0.295671
1727.48, 0.295774
1728.05, 0.295876
1728.63, 0.295927
1729.2, 0.296030
1729.78, 0.295876
1730.36, 0.295722
1730.94, 0.296030
1731.51, 0.296132
1732.09, 0.295825
1732.67, 0.295722
1733.25, 0.296030
1733.83, 0.296184
1734.41, 0.296286
1734.99, 0.296389
1735.57, 0.296184
1736.15, 0.296184
1736.73, 0.296235
1737.32, 0.296030
1737.9, 0.296081
1738.48, 0.296235
1739.07, 0.296440
1739.65, 0.296440
1740.23, 0.296440
1740.82, 0.296543
1741.4, 0.296645
1741.99, 0.296850
1742.57, 0.297107
1743.16, 0.297055
1743.74, 0.296901
1744.33, 0.297004
1744.92, 0.297107
1745.51, 0.297055
1746.09, 0.297055
1746.68, 0.297312
1747.27, 0.297414
1747.86, 0.297465
1748.45, 0.297568
1749.04, 0.297670
1749.63, 0.297722
1750.22, 0.297876
1750.81, 0.297722
1751.4, 0.297722
1751.99, 0.297773
1752.59, 0.297722
1753.18, 0.297927
1753.77, 0.298132
1754.37, 0.298029
1754.96, 0.298029
1755.56, 0.297978
1756.15, 0.298183
1756.74, 0.298337
1757.34, 0.298491
1757.94, 0.298542
1758.53, 0.298593
1759.13, 0.298747
1759.73, 0.298850
1760.32, 0.298747
1760.92, 0.298952
1761.52, 0.299106
1762.12, 0.299055
1762.72, 0.298901
1763.32, 0.298901
1763.92, 0.299106
1764.52, 0.299465
1765.12, 0.299465
1765.72, 0.299465
1766.32, 0.299670
1766.92, 0.299875
1767.53, 0.299875
1768.13, 0.299824
1768.73, 0.299824
1769.34, 0.300183
1769.94, 0.300285
1770.55, 0.300285
1771.15, 0.300234
1771.76, 0.300388
1772.36, 0.300644
1772.97, 0.300798
1773.57, 0.300798
1774.18, 0.300900
1774.79, 0.301003
1775.4, 0.300900
1776.0, 0.300952
1776.61, 0.300952
1777.22, 0.301003
1777.83, 0.301157
1778.44, 0.301157
1779.05, 0.301054
1779.66, 0.301054
1780.27, 0.301157
1780.88, 0.301362
1781.5, 0.301567
1782.11, 0.301721
1782.72, 0.301977
1783.33, 0.301926
1783.95, 0.301977
1784.56, 0.301977
1785.18, 0.301823
1785.79, 0.301823
1786.41, 0.302028
1787.02, 0.302233
1787.64, 0.302285
1788.26, 0.302439
1788.87, 0.302644
1789.49, 0.302490
1790.11, 0.302541
1790.73, 0.302490
1791.35, 0.302849
1791.96, 0.302951
1792.58, 0.302849
1793.21, 0.302797
1793.83, 0.303054
1794.45, 0.303105
1795.07, 0.303105
1795.69, 0.303208
1796.31, 0.303361
1796.93, 0.303310
1797.56, 0.303464
1798.18, 0.303566
1798.8, 0.303669
1799.43, 0.303874
1800.05, 0.303823
1800.68, 0.303925
1801.3, 0.303977
1801.93, 0.304028
1802.56, 0.304079
1803.18, 0.304079
1803.81, 0.304233
1804.44, 0.304233
1805.07, 0.304284
1805.7, 0.304387
1806.33, 0.304489
1806.95, 0.304489
1807.58, 0.304438
1808.22, 0.304541
1808.85, 0.304643
1809.48, 0.304848
1810.11, 0.305053
1810.74, 0.305156
1811.38, 0.305105
1812.01, 0.305207
1812.64, 0.305310
1813.28, 0.305361
1813.91, 0.305515
1814.55, 0.305669
1815.18, 0.305720
1815.82, 0.305822
1816.45, 0.305976
1817.09, 0.305925
1817.73, 0.306130
1818.36, 0.306386
1819.0, 0.306489
1819.64, 0.306438
1820.28, 0.306643
1820.92, 0.306745
1821.56, 0.306745
1822.2, 0.306796
1822.84, 0.306848
1823.48, 0.307053
1824.12, 0.307053
1824.76, 0.307207
1825.41, 0.307514
1826.05, 0.307771
1826.69, 0.307719
1827.34, 0.307668
1827.98, 0.308078
1828.63, 0.308335
1829.27, 0.308129
1829.92, 0.308232
1830.56, 0.308642
1831.21, 0.308693
1831.86, 0.308693
1832.5, 0.308642
1833.15, 0.308745
1833.8, 0.309001
1834.45, 0.309309
1835.1, 0.309360
1835.75, 0.309462
1836.4, 0.309770
1837.05, 0.309924
1837.7, 0.309975
1838.35, 0.309873
1839.01, 0.310026
1839.66, 0.310385
1840.31, 0.310283
1840.96, 0.310437
1841.62, 0.310898
1842.27, 0.310898
1842.93, 0.310693
1843.58, 0.310847
1844.24, 0.311052
1844.9, 0.311103
1845.55, 0.311206
1846.21, 0.311462
1846.87, 0.311872
1847.53, 0.312180
1848.18, 0.312231
1848.84, 0.311975
1849.5, 0.311923
1850.16, 0.312128
1850.82, 0.312231
1851.48, 0.312231
1852.14, 0.312436
1852.81, 0.312744
1853.47, 0.313051
1854.13, 0.313103
1854.8, 0.313000
1855.46, 0.313051
1856.12, 0.313308
1856.79, 0.313410
1857.45, 0.313461
1858.12, 0.313615
1858.79, 0.313718
1859.45, 0.314077
1860.12, 0.314231
1860.79, 0.314179
1861.46, 0.313923
1862.12, 0.314025
1862.79, 0.314282
1863.46, 0.314333
1864.13, 0.314487
1864.8, 0.314589
1865.48, 0.314743
1866.15, 0.314897
1866.82, 0.315000
1867.49, 0.315256
1868.16, 0.315153
1868.84, 0.315205
1869.51, 0.315256
1870.19, 0.315615
1870.86, 0.315717
1871.54, 0.315717
1872.21, 0.315717
1872.89, 0.315871
1873.56, 0.315922
1874.24, 0.315820
1874.92, 0.315922
1875.6, 0.315974
1876.28, 0.316076
1876.96, 0.316230
1877.64, 0.316281
1878.32, 0.316435
1879.0, 0.316486
1879.68, 0.316486
1880.36, 0.316384
1881.04, 0.316435
1881.73, 0.316538
1882.41, 0.316538
1883.09, 0.316640
1883.78, 0.316897
1884.46, 0.316948
1885.15, 0.317050
1885.83, 0.317204
1886.52, 0.316999
1887.21, 0.316948
1887.89, 0.316897
1888.58, 0.316999
1889.27, 0.317204
1889.96, 0.317307
1890.65, 0.317307
1891.34, 0.317409
1892.03, 0.317666
1892.72, 0.317666
1893.41, 0.317717
1894.1, 0.317614
1894.79, 0.317614
1895.49, 0.317666
1896.18, 0.317768
1896.87, 0.317871
1897.57, 0.317973
1898.26, 0.318076
1898.96, 0.318230
1899.65, 0.318281
1900.35, 0.318281
1901.05, 0.318281
1901.74, 0.318383
1902.44, 0.318691
1903.14, 0.318691
1903.84, 0.318332
1904.54, 0.318640
1905.24, 0.318794
1905.94, 0.318845
1906.64, 0.318896
1907.34, 0.318896
1908.04, 0.318794
1908.75, 0.318896
1909.45, 0.318947
1910.15, 0.318999
1910.86, 0.319152
1911.56, 0.319357
1912.27, 0.319614
1912.97, 0.319665
1913.68, 0.319819
1914.39, 0.319819
1915.09, 0.319768
1915.8, 0.319921
1916.51, 0.319973
1917.22, 0.319973
1917.93, 0.320178
1918.64, 0.320537
1919.35, 0.320742
1920.06, 0.321101
1920.77, 0.321101
1921.48, 0.320793
1922.19, 0.320793
1922.91, 0.320793
1923.62, 0.321254
1924.33, 0.321665
1925.05, 0.321562
1925.76, 0.321511
1926.48, 0.321665
1927.19, 0.321818
1927.91, 0.322075
1928.63, 0.322331
1929.35, 0.322229
1930.07, 0.322177
1930.78, 0.322280
1931.5, 0.322485
1932.22, 0.322536
1932.94, 0.322844
1933.66, 0.322998
1934.39, 0.322998
1935.11, 0.323049
1935.83, 0.323305
1936.55, 0.323357
1937.28, 0.323357
1938.0, 0.323562
1938.73, 0.323767
1939.45, 0.323818
1940.18, 0.323869
1940.9, 0.323920
1941.63, 0.324177
1942.36, 0.324331
1943.09, 0.324331
1943.81, 0.324331
1944.54, 0.324382
1945.27, 0.324689
1946.0, 0.324895
1946.73, 0.324946
1947.47, 0.324895
