Database of Origin,USGS Spectral Database
Sample Description,See USGS database for additional info
Date Added,2016-11-20 03:59:53.889999

Data ID,USGS_liz03          
Sample ID,lizard_nmnhr4687.12967
Mineral Name,Lizardite
Material Class,Phosphate

Wavelength
1344.79, 0.540643
1345.14, 0.541229
1345.48, 0.542106
1345.83, 0.541960
1346.18, 0.542106
1346.53, 0.543350
1346.88, 0.543642
1347.23, 0.544008
1347.58, 0.544886
1347.93, 0.545398
1348.28, 0.545544
1348.64, 0.546056
1348.99, 0.546349
1349.34, 0.546642
1349.69, 0.547373
1350.04, 0.547446
1350.39, 0.547300
1350.74, 0.547446
1351.1, 0.546934
1351.45, 0.547154
1351.8, 0.547373
1352.15, 0.547227
1352.51, 0.546934
1352.86, 0.546642
1353.21, 0.546788
1353.56, 0.546422
1353.92, 0.545764
1354.27, 0.545691
1354.63, 0.545252
1354.98, 0.544593
1355.33, 0.543935
1355.69, 0.543350
1356.04, 0.542765
1356.4, 0.542253
1356.75, 0.541302
1357.11, 0.540790
1357.46, 0.540570
1357.82, 0.540643
1358.18, 0.540936
1358.53, 0.541668
1358.89, 0.541668
1359.24, 0.542179
1359.6, 0.542472
1359.96, 0.542692
1360.31, 0.542692
1360.67, 0.543057
1361.03, 0.542911
1361.39, 0.543277
1361.74, 0.543935
1362.1, 0.545179
1362.46, 0.544959
1362.82, 0.544813
1363.18, 0.545544
1363.53, 0.546422
1363.89, 0.547739
1364.25, 0.549494
1364.61, 0.550153
1364.97, 0.550738
1365.33, 0.551543
1365.69, 0.551762
1366.05, 0.552420
1366.41, 0.553956
1366.77, 0.554615
1367.13, 0.554834
1367.49, 0.554981
1367.85, 0.555493
1368.21, 0.556517
1368.57, 0.556809
1368.93, 0.556809
1369.3, 0.557248
1369.66, 0.557541
1370.02, 0.557029
1370.38, 0.557102
1370.74, 0.557980
1371.11, 0.557687
1371.47, 0.557614
1371.83, 0.558053
1372.19, 0.557980
1372.56, 0.557907
1372.92, 0.557321
1373.29, 0.557468
1373.65, 0.557980
1374.01, 0.557468
1374.38, 0.557248
1374.74, 0.557102
1375.11, 0.556882
1375.47, 0.556882
1375.84, 0.556370
1376.2, 0.555712
1376.57, 0.555858
1376.93, 0.556005
1377.3, 0.554981
1377.67, 0.553737
1378.03, 0.552640
1378.4, 0.550665
1378.76, 0.546349
1379.13, 0.538888
1379.5, 0.525940
1379.87, 0.503996
1380.23, 0.475029
1380.6, 0.447671
1380.97, 0.431286
1381.34, 0.426897
1381.7, 0.429677
1382.07, 0.437942
1382.44, 0.452426
1382.81, 0.470274
1383.18, 0.487025
1383.55, 0.499095
1383.92, 0.504947
1384.29, 0.505751
1384.66, 0.503557
1385.03, 0.499022
1385.4, 0.492511
1385.77, 0.486001
1386.14, 0.480003
1386.51, 0.476126
1386.88, 0.474883
1387.25, 0.475395
1387.62, 0.477882
1387.99, 0.480296
1388.36, 0.482856
1388.74, 0.484538
1389.11, 0.486001
1389.48, 0.487025
1389.85, 0.487172
1390.23, 0.486513
1390.6, 0.485928
1390.97, 0.485343
1391.35, 0.484684
1391.72, 0.483514
1392.09, 0.482783
1392.47, 0.480808
1392.84, 0.477662
1393.21, 0.474444
1393.59, 0.471591
1393.96, 0.468445
1394.34, 0.465593
1394.71, 0.462301
1395.09, 0.458863
1395.46, 0.456668
1395.84, 0.455571
1396.22, 0.454035
1396.59, 0.453230
1396.97, 0.453450
1397.35, 0.454474
1397.72, 0.456888
1398.1, 0.460180
1398.48, 0.463032
1398.85, 0.465958
1399.23, 0.469616
1399.61, 0.473858
1399.99, 0.477809
1400.37, 0.481612
1400.74, 0.484904
1401.12, 0.487684
1401.5, 0.489732
1401.88, 0.491341
1402.26, 0.493024
1402.64, 0.495364
1403.02, 0.497998
1403.4, 0.501143
1403.78, 0.504435
1404.16, 0.508092
1404.54, 0.512335
1404.92, 0.516797
1405.3, 0.519869
1405.68, 0.522868
1406.06, 0.526233
1406.44, 0.529159
1406.83, 0.531719
1407.21, 0.533987
1407.59, 0.535742
1407.97, 0.537864
1408.35, 0.539912
1408.74, 0.541448
1409.12, 0.543130
1409.5, 0.544520
1409.89, 0.545618
1410.27, 0.546788
1410.65, 0.547885
1411.04, 0.548470
1411.42, 0.548836
1411.81, 0.549641
1412.19, 0.549933
1412.58, 0.550592
1412.96, 0.551104
1413.35, 0.551762
1413.73, 0.552274
1414.12, 0.552567
1414.5, 0.552201
1414.89, 0.552420
1415.28, 0.552859
1415.66, 0.552420
1416.05, 0.551762
1416.44, 0.551543
1416.82, 0.551104
1417.21, 0.551323
1417.6, 0.551177
1417.98, 0.550811
1418.37, 0.550299
1418.76, 0.550006
1419.15, 0.549348
1419.54, 0.548324
1419.93, 0.547519
1420.32, 0.547519
1420.71, 0.547154
1421.09, 0.546568
1421.48, 0.546568
1421.88, 0.545910
1422.27, 0.545471
1422.66, 0.545618
1423.05, 0.544886
1423.44, 0.544520
1423.83, 0.544593
1424.22, 0.544081
1424.61, 0.543789
1425.0, 0.543935
1425.39, 0.543716
1425.78, 0.543642
1426.18, 0.543862
1426.57, 0.543789
1426.96, 0.543569
1427.36, 0.544081
1427.75, 0.544520
1428.14, 0.544740
1428.54, 0.544081
1428.93, 0.544301
1429.32, 0.544667
1429.72, 0.544667
1430.11, 0.544593
1430.51, 0.544813
1430.9, 0.545252
1431.3, 0.545471
1431.69, 0.545471
1432.09, 0.546056
1432.48, 0.545983
1432.88, 0.545983
1433.28, 0.545983
1433.67, 0.546349
1434.07, 0.546568
1434.46, 0.546495
1434.86, 0.546568
1435.26, 0.547080
1435.66, 0.547007
1436.05, 0.546568
1436.45, 0.546934
1436.85, 0.547300
1437.25, 0.547519
1437.65, 0.547739
1438.05, 0.547885
1438.44, 0.547666
1438.84, 0.547958
1439.24, 0.547958
1439.64, 0.547739
1440.04, 0.547958
1440.44, 0.547666
1440.84, 0.547519
1441.24, 0.547593
1441.65, 0.547666
1442.05, 0.547739
1442.45, 0.547812
1442.85, 0.547739
1443.25, 0.547812
1443.65, 0.547519
1444.05, 0.547227
1444.46, 0.547080
1444.86, 0.547446
1445.26, 0.548031
1445.67, 0.548031
1446.07, 0.547666
1446.47, 0.547446
1446.88, 0.547446
1447.28, 0.547446
1447.68, 0.547300
1448.09, 0.547373
1448.49, 0.547373
1448.9, 0.547373
1449.3, 0.547446
1449.71, 0.547885
1450.11, 0.547593
1450.52, 0.547739
1450.93, 0.547446
1451.33, 0.547300
1451.74, 0.547227
1452.14, 0.546788
1452.55, 0.546495
1452.96, 0.546349
1453.36, 0.546568
1453.77, 0.546422
1454.18, 0.546203
1454.59, 0.545837
1455.0, 0.545764
1455.41, 0.546276
1455.81, 0.545910
1456.22, 0.545691
1456.63, 0.545325
1457.04, 0.545398
1457.45, 0.545618
1457.86, 0.545691
1458.27, 0.545691
1458.68, 0.545544
1459.09, 0.545544
1459.5, 0.545471
1459.91, 0.545837
1460.32, 0.545983
1460.74, 0.545471
1461.15, 0.544959
1461.56, 0.544886
1461.97, 0.544667
1462.39, 0.545032
1462.8, 0.545618
1463.21, 0.545544
1463.62, 0.544520
1464.04, 0.544374
1464.45, 0.544886
1464.86, 0.545398
1465.28, 0.545032
1465.69, 0.544447
1466.11, 0.544228
1466.52, 0.543862
1466.94, 0.544008
1467.35, 0.544228
1467.77, 0.543789
1468.18, 0.543716
1468.6, 0.543862
1469.02, 0.543789
1469.43, 0.543642
1469.85, 0.543496
1470.27, 0.543423
1470.68, 0.543569
1471.1, 0.544008
1471.52, 0.543716
1471.94, 0.543862
1472.35, 0.543642
1472.77, 0.543423
1473.19, 0.543350
1473.61, 0.543569
1474.03, 0.543423
1474.45, 0.542765
1474.87, 0.542472
1475.29, 0.542545
1475.71, 0.542618
1476.13, 0.542838
1476.55, 0.542838
1476.97, 0.542253
1477.39, 0.542253
1477.81, 0.542545
1478.23, 0.542692
1478.65, 0.542399
1479.07, 0.542106
1479.5, 0.541960
1479.92, 0.542106
1480.34, 0.542253
1480.76, 0.542033
1481.19, 0.541814
1481.61, 0.541668
1482.03, 0.541521
1482.46, 0.541448
1482.88, 0.541229
1483.31, 0.541155
1483.73, 0.541155
1484.16, 0.541082
1484.58, 0.540863
1485.01, 0.540643
1485.43, 0.540570
1485.86, 0.540863
1486.28, 0.540497
1486.71, 0.540131
1487.14, 0.540570
1487.56, 0.540717
1487.99, 0.540497
1488.42, 0.540058
1488.84, 0.539985
1489.27, 0.539766
1489.7, 0.539839
1490.13, 0.540278
1490.56, 0.540278
1490.98, 0.540204
1491.41, 0.540643
1491.84, 0.540717
1492.27, 0.540278
1492.7, 0.539692
1493.13, 0.539473
1493.56, 0.539327
1493.99, 0.539619
1494.42, 0.539400
1494.85, 0.539180
1495.29, 0.539107
1495.72, 0.539400
1496.15, 0.539180
1496.58, 0.539107
1497.01, 0.538741
1497.44, 0.538741
1497.88, 0.538961
1498.31, 0.538741
1498.74, 0.538229
1499.18, 0.538083
1499.61, 0.538303
1500.04, 0.538449
1500.48, 0.538449
1500.91, 0.538376
1501.35, 0.538303
1501.78, 0.538083
1502.22, 0.537498
1502.65, 0.537205
1503.09, 0.537352
1503.53, 0.537425
1503.96, 0.537059
1504.4, 0.537132
1504.83, 0.536767
1505.27, 0.536547
1505.71, 0.536474
1506.15, 0.536547
1506.58, 0.535962
1507.02, 0.535596
1507.46, 0.535742
1507.9, 0.536108
1508.34, 0.535816
1508.78, 0.535596
1509.21, 0.535742
1509.66, 0.535816
1510.09, 0.535889
1510.53, 0.535889
1510.97, 0.535596
1511.42, 0.535523
1511.86, 0.535157
1512.3, 0.535011
1512.74, 0.535011
1513.18, 0.535084
1513.62, 0.535230
1514.06, 0.534572
1514.51, 0.534353
1514.95, 0.534572
1515.39, 0.534426
1515.83, 0.534645
1516.28, 0.534645
1516.72, 0.534206
1517.16, 0.533914
1517.61, 0.533841
1518.05, 0.533841
1518.5, 0.533694
1518.94, 0.533328
1519.39, 0.533182
1519.83, 0.533328
1520.28, 0.533402
1520.73, 0.533109
1521.17, 0.532963
1521.62, 0.532816
1522.07, 0.532743
1522.51, 0.532743
1522.96, 0.533036
1523.41, 0.532816
1523.85, 0.533182
1524.3, 0.533036
1524.75, 0.532158
1525.2, 0.531939
1525.65, 0.532524
1526.1, 0.532231
1526.55, 0.531866
1527.0, 0.531646
1527.45, 0.531427
1527.9, 0.531427
1528.35, 0.531792
1528.8, 0.532012
1529.25, 0.531939
1529.7, 0.531353
1530.15, 0.531061
1530.6, 0.531134
1531.05, 0.530915
1531.51, 0.530988
1531.96, 0.530988
1532.41, 0.531061
1532.87, 0.531134
1533.32, 0.530988
1533.77, 0.530476
1534.23, 0.530403
1534.68, 0.530622
1535.14, 0.530183
1535.59, 0.529890
1536.05, 0.530256
1536.5, 0.530183
1536.96, 0.530037
1537.41, 0.530037
1537.87, 0.529744
1538.32, 0.529598
1538.78, 0.529817
1539.24, 0.529817
1539.7, 0.529525
1540.15, 0.529671
1540.61, 0.530256
1541.07, 0.530403
1541.53, 0.529744
1541.98, 0.529598
1542.44, 0.529671
1542.9, 0.529817
1543.36, 0.529671
1543.82, 0.529598
1544.28, 0.529671
1544.74, 0.529744
1545.2, 0.529525
1545.66, 0.529086
1546.12, 0.528940
1546.59, 0.529232
1547.05, 0.529305
1547.51, 0.529232
1547.97, 0.529452
1548.43, 0.529598
1548.9, 0.529452
1549.36, 0.529232
1549.82, 0.529159
1550.29, 0.529159
1550.75, 0.528940
1551.21, 0.528647
1551.68, 0.528793
1552.14, 0.529086
1552.61, 0.529086
1553.07, 0.528866
1553.54, 0.528574
1554.0, 0.528866
1554.47, 0.528866
1554.93, 0.528793
1555.4, 0.529013
1555.87, 0.528940
1556.34, 0.528281
1556.8, 0.528281
1557.27, 0.528501
1557.74, 0.528135
1558.21, 0.527769
1558.68, 0.528062
1559.14, 0.528135
1559.61, 0.528135
1560.08, 0.528135
1560.55, 0.528208
1561.02, 0.527842
1561.49, 0.527989
1561.96, 0.527989
1562.43, 0.527915
1562.9, 0.527769
1563.38, 0.527842
1563.85, 0.527550
1564.32, 0.527330
1564.79, 0.527769
1565.26, 0.527623
1565.74, 0.527330
1566.21, 0.527257
1566.68, 0.527184
1567.16, 0.527403
1567.63, 0.527623
1568.1, 0.527403
1568.58, 0.527038
1569.05, 0.526818
1569.53, 0.526672
1570.0, 0.526745
1570.48, 0.526818
1570.96, 0.526891
1571.43, 0.526672
1571.91, 0.526891
1572.39, 0.527184
1572.86, 0.526526
1573.34, 0.526379
1573.82, 0.526526
1574.3, 0.526014
1574.77, 0.525940
1575.25, 0.526233
1575.73, 0.526160
1576.21, 0.526087
1576.69, 0.526160
1577.17, 0.525940
1577.65, 0.525794
1578.13, 0.525794
1578.61, 0.526014
1579.09, 0.526087
1579.57, 0.526014
1580.05, 0.525648
1580.54, 0.525575
1581.02, 0.525428
1581.5, 0.525209
1581.98, 0.525136
1582.47, 0.525209
1582.95, 0.525428
1583.43, 0.525502
1583.92, 0.525648
1584.4, 0.525575
1584.88, 0.525502
1585.37, 0.525355
1585.85, 0.525063
1586.34, 0.524843
1586.82, 0.524990
1587.31, 0.524990
1587.8, 0.524770
1588.28, 0.524697
1588.77, 0.524404
1589.26, 0.524039
1589.74, 0.523965
1590.23, 0.524185
1590.72, 0.524258
1591.21, 0.523965
1591.7, 0.524039
1592.19, 0.524404
1592.67, 0.524404
1593.16, 0.524185
1593.65, 0.523965
1594.14, 0.524039
1594.63, 0.523892
1595.12, 0.523892
1595.61, 0.523746
1596.11, 0.523746
1596.6, 0.523673
1597.09, 0.523380
1597.58, 0.523234
1598.08, 0.523600
1598.57, 0.523819
1599.06, 0.523307
1599.55, 0.522649
1600.05, 0.522795
1600.54, 0.523161
1601.04, 0.523088
1601.53, 0.522722
1602.03, 0.522868
1602.52, 0.523161
1603.02, 0.523307
1603.51, 0.522941
1604.01, 0.522722
1604.5, 0.522649
1605.0, 0.522795
1605.5, 0.522722
1606.0, 0.522722
1606.49, 0.522795
1606.99, 0.522941
1607.49, 0.522576
1607.99, 0.522429
1608.49, 0.522576
1608.99, 0.522429
1609.49, 0.522283
1609.99, 0.522502
1610.49, 0.522429
1610.99, 0.522356
1611.49, 0.521990
1611.99, 0.522064
1612.49, 0.522429
1612.99, 0.522356
1613.49, 0.522064
1614.0, 0.522064
1614.5, 0.522356
1615.0, 0.522210
1615.51, 0.521990
1616.01, 0.521990
1616.51, 0.521990
1617.02, 0.521844
1617.52, 0.521844
1618.03, 0.521771
1618.53, 0.521625
1619.04, 0.521625
1619.54, 0.521698
1620.05, 0.521917
1620.55, 0.521844
1621.06, 0.521405
1621.57, 0.521625
1622.08, 0.521990
1622.58, 0.521771
1623.09, 0.521405
1623.6, 0.521113
1624.11, 0.521186
1624.62, 0.520966
1625.13, 0.521039
1625.64, 0.521186
1626.15, 0.521259
1626.66, 0.520966
1627.17, 0.521113
1627.68, 0.521039
1628.19, 0.521039
1628.7, 0.521039
1629.21, 0.520893
1629.72, 0.520601
1630.24, 0.520747
1630.75, 0.520747
1631.26, 0.520527
1631.78, 0.520454
1632.29, 0.520381
1632.8, 0.520381
1633.32, 0.520454
1633.83, 0.520162
1634.35, 0.520162
1634.86, 0.520089
1635.38, 0.520015
1635.9, 0.520162
1636.41, 0.520015
1636.93, 0.519576
1637.45, 0.519503
1637.96, 0.519503
1638.48, 0.519284
1639.0, 0.519211
1639.52, 0.519284
1640.04, 0.519284
1640.56, 0.519138
1641.08, 0.518991
1641.59, 0.519064
1642.11, 0.519138
1642.63, 0.518991
1643.16, 0.518845
1643.68, 0.518918
1644.2, 0.518918
1644.72, 0.518845
1645.24, 0.518772
1645.76, 0.518552
1646.29, 0.518260
1646.81, 0.518040
1647.33, 0.518040
1647.86, 0.518113
1648.38, 0.517821
1648.9, 0.517748
1649.43, 0.517601
1649.95, 0.517601
1650.48, 0.517821
1651.0, 0.517821
1651.53, 0.517748
1652.06, 0.517601
1652.58, 0.517309
1653.11, 0.517382
1653.64, 0.517309
1654.17, 0.517309
1654.69, 0.517236
1655.22, 0.516724
1655.75, 0.516504
1656.28, 0.516650
1656.81, 0.516577
1657.34, 0.516504
1657.87, 0.516577
1658.4, 0.516577
1658.93, 0.516431
1659.46, 0.516431
1659.99, 0.516504
1660.52, 0.516431
1661.05, 0.516212
1661.59, 0.516139
1662.12, 0.515992
1662.65, 0.515919
1663.19, 0.515773
1663.72, 0.515626
1664.26, 0.515700
1664.79, 0.515846
1665.32, 0.515480
1665.86, 0.515114
1666.39, 0.515114
1666.93, 0.514968
1667.47, 0.514749
1668.0, 0.514822
1668.54, 0.514895
1669.08, 0.514968
1669.61, 0.514822
1670.15, 0.514895
1670.69, 0.514749
1671.23, 0.514529
1671.77, 0.514602
1672.31, 0.514310
1672.85, 0.514310
1673.39, 0.514237
1673.93, 0.514237
1674.47, 0.514602
1675.01, 0.514529
1675.55, 0.514237
1676.09, 0.514090
1676.64, 0.514017
1677.18, 0.514017
1677.72, 0.513798
1678.26, 0.513578
1678.81, 0.513651
1679.35, 0.513651
1679.89, 0.513432
1680.44, 0.513432
1680.98, 0.513725
1681.53, 0.513505
1682.07, 0.513286
1682.62, 0.513286
1683.17, 0.513359
1683.71, 0.513286
1684.26, 0.513139
1684.81, 0.513066
1685.36, 0.512993
1685.9, 0.512700
1686.45, 0.512627
1687.0, 0.512920
1687.55, 0.512774
1688.1, 0.512554
1688.65, 0.512408
1689.2, 0.512335
1689.75, 0.512188
1690.3, 0.512115
1690.85, 0.512262
1691.41, 0.512335
1691.96, 0.512115
1692.51, 0.512188
1693.06, 0.512262
1693.61, 0.511969
1694.17, 0.511969
1694.72, 0.511823
1695.28, 0.511676
1695.83, 0.511530
1696.39, 0.511457
1696.94, 0.511311
1697.5, 0.511311
1698.05, 0.511018
1698.61, 0.511238
1699.17, 0.511457
1699.72, 0.511384
1700.28, 0.511238
1700.84, 0.511164
1701.4, 0.511091
1701.95, 0.510872
1702.51, 0.510433
1703.07, 0.510579
1703.63, 0.510579
1704.19, 0.510360
1704.75, 0.510360
1705.31, 0.510213
1705.88, 0.509921
1706.44, 0.509994
1707.0, 0.509921
1707.56, 0.509848
1708.12, 0.509482
1708.69, 0.509409
1709.25, 0.509409
1709.81, 0.509409
1710.38, 0.509336
1710.94, 0.509043
1711.51, 0.508897
1712.07, 0.508897
1712.64, 0.508970
1713.2, 0.508897
1713.77, 0.508531
1714.34, 0.508458
1714.9, 0.508385
1715.47, 0.508312
1716.04, 0.508312
1716.61, 0.508092
1717.18, 0.507946
1717.74, 0.508092
1718.31, 0.508019
1718.88, 0.507726
1719.45, 0.507214
1720.02, 0.507214
1720.59, 0.506922
1721.17, 0.506702
1721.74, 0.506702
1722.31, 0.506410
1722.88, 0.506483
1723.45, 0.506702
1724.03, 0.506556
1724.6, 0.506117
1725.18, 0.506190
1725.75, 0.506263
1726.33, 0.506190
1726.9, 0.505971
1727.48, 0.505678
1728.05, 0.505532
1728.63, 0.505459
1729.2, 0.505166
1729.78, 0.504947
1730.36, 0.505093
1730.94, 0.504947
1731.51, 0.505020
1732.09, 0.504947
1732.67, 0.504654
1733.25, 0.504435
1733.83, 0.504288
1734.41, 0.504069
1734.99, 0.504069
1735.57, 0.503996
1736.15, 0.503996
1736.73, 0.503923
1737.32, 0.503923
1737.9, 0.503630
1738.48, 0.503411
1739.07, 0.503338
1739.65, 0.503264
1740.23, 0.503118
1740.82, 0.503118
1741.4, 0.502972
1741.99, 0.502972
1742.57, 0.502972
1743.16, 0.502899
1743.74, 0.502825
1744.33, 0.502899
1744.92, 0.502825
1745.51, 0.502533
1746.09, 0.502313
1746.68, 0.502167
1747.27, 0.502240
1747.86, 0.502167
1748.45, 0.502094
1749.04, 0.502167
1749.63, 0.501948
1750.22, 0.501801
1750.81, 0.501801
1751.4, 0.501655
1751.99, 0.501509
1752.59, 0.501509
1753.18, 0.501509
1753.77, 0.501509
1754.37, 0.501070
1754.96, 0.500924
1755.56, 0.501143
1756.15, 0.501289
1756.74, 0.501216
1757.34, 0.500997
1757.94, 0.500704
1758.53, 0.500412
1759.13, 0.500338
1759.73, 0.500192
1760.32, 0.500265
1760.92, 0.500338
1761.52, 0.500119
1762.12, 0.500119
1762.72, 0.499899
1763.32, 0.499753
1763.92, 0.499973
1764.52, 0.499753
1765.12, 0.499607
1765.72, 0.499753
1766.32, 0.499680
1766.92, 0.499607
1767.53, 0.499168
1768.13, 0.499168
1768.73, 0.499168
1769.34, 0.499314
1769.94, 0.499314
1770.55, 0.499022
1771.15, 0.498656
1771.76, 0.498729
1772.36, 0.499022
1772.97, 0.499022
1773.57, 0.498510
1774.18, 0.498290
1774.79, 0.498510
1775.4, 0.498656
1776.0, 0.498656
1776.61, 0.498510
1777.22, 0.498363
1777.83, 0.498144
1778.44, 0.498071
1779.05, 0.498071
1779.66, 0.497851
1780.27, 0.497705
1780.88, 0.497632
1781.5, 0.497559
1782.11, 0.497339
1782.72, 0.497266
1783.33, 0.497339
1783.95, 0.497266
1784.56, 0.497120
1785.18, 0.496973
1785.79, 0.496681
1786.41, 0.496608
1787.02, 0.496608
1787.64, 0.496461
1788.26, 0.496388
1788.87, 0.496242
1789.49, 0.495876
1790.11, 0.495803
1790.73, 0.495511
1791.35, 0.495437
1791.96, 0.495511
1792.58, 0.495584
1793.21, 0.495437
1793.83, 0.495145
1794.45, 0.494852
1795.07, 0.494779
1795.69, 0.494486
1796.31, 0.494194
1796.93, 0.494121
1797.56, 0.494267
1798.18, 0.494048
1798.8, 0.493828
1799.43, 0.493682
1800.05, 0.493535
1800.68, 0.493462
1801.3, 0.493535
1801.93, 0.493316
1802.56, 0.493170
1803.18, 0.492877
1803.81, 0.492585
1804.44, 0.492511
1805.07, 0.492438
1805.7, 0.492219
1806.33, 0.491926
1806.95, 0.491487
1807.58, 0.491268
1808.22, 0.491122
1808.85, 0.490829
1809.48, 0.490244
1810.11, 0.490171
1810.74, 0.490463
1811.38, 0.490463
1812.01, 0.489951
1812.64, 0.489732
1813.28, 0.489439
1813.91, 0.489147
1814.55, 0.489147
1815.18, 0.489585
1815.82, 0.489585
1816.45, 0.489366
1817.09, 0.489073
1817.73, 0.488927
1818.36, 0.489000
1819.0, 0.488854
1819.64, 0.489147
1820.28, 0.489585
1820.92, 0.489220
1821.56, 0.488927
1822.2, 0.488634
1822.84, 0.488415
1823.48, 0.488415
1824.12, 0.488342
1824.76, 0.488196
1825.41, 0.488561
1826.05, 0.489220
1826.69, 0.488561
1827.34, 0.487830
1827.98, 0.487976
1828.63, 0.488123
1829.27, 0.488049
1829.92, 0.488049
1830.56, 0.488269
1831.21, 0.488049
1831.86, 0.487830
1832.5, 0.487537
1833.15, 0.487098
1833.8, 0.487245
1834.45, 0.487318
1835.1, 0.487318
1835.75, 0.487610
1836.4, 0.487391
1837.05, 0.487098
1837.7, 0.487318
1838.35, 0.486586
1839.01, 0.486586
1839.66, 0.487245
1840.31, 0.486659
1840.96, 0.486513
1841.62, 0.486952
1842.27, 0.486367
1842.93, 0.485635
1843.58, 0.485489
