Database of Origin, USGS Spectral Database
Sample Description, See USGS database for additional info
Date Added,2016-08-10 02:49:51.515588

Data ID,USGS_goe04          
Sample ID, goethite_hs36.8308
Mineral Name, goethite
Material Class,Hydroxide

Wavelength
1582.95, 0.0780670
1583.43, 0.0782000
1583.92, 0.0782670
1584.4, 0.0786000
1584.88, 0.0787340
1585.37, 0.0785340
1585.85, 0.0785340
1586.34, 0.0787340
1586.82, 0.0788670
1587.31, 0.0786000
1587.8, 0.0786670
1588.28, 0.0790670
1588.77, 0.0793340
1589.26, 0.0794010
1589.74, 0.0791340
1590.23, 0.0791340
1590.72, 0.0792010
1591.21, 0.0792010
1591.7, 0.0791340
1592.19, 0.0791340
1592.67, 0.0794010
1593.16, 0.0796680
1593.65, 0.0798010
1594.14, 0.0798680
1594.63, 0.0798010
1595.12, 0.0796680
1595.61, 0.0796680
1596.11, 0.0800020
1596.6, 0.0804020
1597.09, 0.0805350
1597.58, 0.0803350
1598.08, 0.0803350
1598.57, 0.0806020
1599.06, 0.0804690
1599.55, 0.0804020
1600.05, 0.0806020
1600.54, 0.0806690
1601.04, 0.0808690
1601.53, 0.0810020
1602.03, 0.0812030
1602.52, 0.0812030
1603.02, 0.0810020
1603.51, 0.0804690
1604.01, 0.0804020
1604.5, 0.0806020
1605.0, 0.0809360
1605.5, 0.0810690
1606.0, 0.0811360
1606.49, 0.0813360
1606.99, 0.0814690
1607.49, 0.0814690
1607.99, 0.0814690
1608.49, 0.0816700
1608.99, 0.0817360
1609.49, 0.0814030
1609.99, 0.0816030
1610.49, 0.0818030
1610.99, 0.0817360
1611.49, 0.0816700
1611.99, 0.0816030
1612.49, 0.0816030
1612.99, 0.0818030
1613.49, 0.0820700
1614.0, 0.0820030
1614.5, 0.0820700
1615.0, 0.0821370
1615.51, 0.0822030
1616.01, 0.0823370
1616.51, 0.0826700
1617.02, 0.0828710
1617.52, 0.0828040
1618.03, 0.0822700
1618.53, 0.0825370
1619.04, 0.0830040
1619.54, 0.0832040
1620.05, 0.0832040
1620.55, 0.0826700
1621.06, 0.0824040
1621.57, 0.0829370
1622.08, 0.0831380
1622.58, 0.0832040
1623.09, 0.0833380
1623.6, 0.0833380
1624.11, 0.0832040
1624.62, 0.0828040
1625.13, 0.0828040
1625.64, 0.0830040
1626.15, 0.0832710
1626.66, 0.0834710
1627.17, 0.0837380
1627.68, 0.0837380
1628.19, 0.0838050
1628.7, 0.0838050
1629.21, 0.0836710
1629.72, 0.0836710
1630.24, 0.0840720
1630.75, 0.0838050
1631.26, 0.0834710
1631.78, 0.0837380
1632.29, 0.0838050
1632.8, 0.0839380
1633.32, 0.0842050
1633.83, 0.0846050
1634.35, 0.0844720
1634.86, 0.0838710
1635.38, 0.0838050
1635.9, 0.0842720
1636.41, 0.0844720
1636.93, 0.0843390
1637.45, 0.0844720
1637.96, 0.0845390
1638.48, 0.0847390
1639.0, 0.0845390
1639.52, 0.0847390
1640.04, 0.0851390
1640.56, 0.0849390
1641.08, 0.0846720
1641.59, 0.0846720
1642.11, 0.0848720
1642.63, 0.0851390
1643.16, 0.0853390
1643.68, 0.0851390
1644.2, 0.0849390
1644.72, 0.0850730
1645.24, 0.0852730
1645.76, 0.0851390
1646.29, 0.0852060
1646.81, 0.0854730
1647.33, 0.0854730
1647.86, 0.0854060
1648.38, 0.0858730
1648.9, 0.0866070
1649.43, 0.0863400
1649.95, 0.0858060
1650.48, 0.0857400
1651.0, 0.0860730
1651.53, 0.0862740
1652.06, 0.0862740
1652.58, 0.0860730
1653.11, 0.0858060
1653.64, 0.0859400
1654.17, 0.0858730
1654.69, 0.0858060
1655.22, 0.0860070
1655.75, 0.0863400
1656.28, 0.0866070
1656.81, 0.0865400
1657.34, 0.0862740
1657.87, 0.0862740
1658.4, 0.0864740
1658.93, 0.0865400
1659.46, 0.0865400
1659.99, 0.0864740
1660.52, 0.0866070
1661.05, 0.0867410
1661.59, 0.0868740
1662.12, 0.0868740
1662.65, 0.0869410
1663.19, 0.0869410
1663.72, 0.0867410
1664.26, 0.0868070
1664.79, 0.0868740
1665.32, 0.0866070
1665.86, 0.0865400
1666.39, 0.0868070
1666.93, 0.0871410
1667.47, 0.0871410
1668.0, 0.0870740
1668.54, 0.0874080
1669.08, 0.0874750
1669.61, 0.0875410
1670.15, 0.0877410
1670.69, 0.0877410
1671.23, 0.0874080
1671.77, 0.0874080
1672.31, 0.0874750
1672.85, 0.0874750
1673.39, 0.0876750
1673.93, 0.0878750
1674.47, 0.0881420
1675.01, 0.0881420
1675.55, 0.0878080
1676.09, 0.0878750
1676.64, 0.0880750
1677.18, 0.0881420
1677.72, 0.0880080
1678.26, 0.0881420
1678.81, 0.0884750
1679.35, 0.0890090
1679.89, 0.0889420
1680.44, 0.0883420
1680.98, 0.0882750
1681.53, 0.0886090
1682.07, 0.0885420
1682.62, 0.0885420
1683.17, 0.0888090
1683.71, 0.0887420
1684.26, 0.0884090
1684.81, 0.0888090
1685.36, 0.0891430
1685.9, 0.0889420
1686.45, 0.0892760
1687.0, 0.0894760
1687.55, 0.0893430
1688.1, 0.0892760
1688.65, 0.0890760
1689.2, 0.0890760
1689.75, 0.0893430
1690.3, 0.0896760
1690.85, 0.0896760
1691.41, 0.0892090
1691.96, 0.0890090
1692.51, 0.0891430
1693.06, 0.0892760
1693.61, 0.0895430
1694.17, 0.0897430
1694.72, 0.0898770
1695.28, 0.0896760
1695.83, 0.0897430
1696.39, 0.0900100
1696.94, 0.0900770
1697.5, 0.0901430
1698.05, 0.0900100
1698.61, 0.0898100
1699.17, 0.0902100
1699.72, 0.0905440
1700.28, 0.0903440
1700.84, 0.0904100
1701.4, 0.0902770
1701.95, 0.0899430
1702.51, 0.0899430
1703.07, 0.0901430
1703.63, 0.0904100
1704.19, 0.0904100
1704.75, 0.0902770
1705.31, 0.0904770
1705.88, 0.0907440
1706.44, 0.0908110
1707.0, 0.0908110
1707.56, 0.0908110
1708.12, 0.0909440
1708.69, 0.0908770
1709.25, 0.0908110
1709.81, 0.0908110
1710.38, 0.0906770
1710.94, 0.0910110
1711.51, 0.0911440
1712.07, 0.0910780
1712.64, 0.0908770
1713.2, 0.0907440
1713.77, 0.0910110
1714.34, 0.0914780
1714.9, 0.0917450
1715.47, 0.0916110
1716.04, 0.0914780
1716.61, 0.0913450
1717.18, 0.0910780
1717.74, 0.0912110
1718.31, 0.0915450
1718.88, 0.0914780
1719.45, 0.0915450
1720.02, 0.0916780
1720.59, 0.0916780
1721.17, 0.0914780
1721.74, 0.0914110
1722.31, 0.0914110
1722.88, 0.0915450
1723.45, 0.0917450
1724.03, 0.0920120
1724.6, 0.0921450
1725.18, 0.0922120
1725.75, 0.0920780
1726.33, 0.0919450
1726.9, 0.0920120
1727.48, 0.0920780
1728.05, 0.0922790
1728.63, 0.0924120
1729.2, 0.0923450
1729.78, 0.0922120
1730.36, 0.0922120
1730.94, 0.0922790
1731.51, 0.0924790
1732.09, 0.0925460
1732.67, 0.0926120
1733.25, 0.0925460
1733.83, 0.0924120
1734.41, 0.0924120
1734.99, 0.0927460
1735.57, 0.0929460
1736.15, 0.0926120
1736.73, 0.0924790
1737.32, 0.0925460
1737.9, 0.0926120
1738.48, 0.0928120
1739.07, 0.0930130
1739.65, 0.0928120
1740.23, 0.0927460
1740.82, 0.0930790
1741.4, 0.0931460
1741.99, 0.0930790
1742.57, 0.0930790
1743.16, 0.0931460
1743.74, 0.0930130
1744.33, 0.0928790
1744.92, 0.0929460
1745.51, 0.0933460
1746.09, 0.0934130
1746.68, 0.0932130
1747.27, 0.0932790
1747.86, 0.0934130
1748.45, 0.0934130
1749.04, 0.0934800
1749.63, 0.0934800
1750.22, 0.0935460
1750.81, 0.0936800
1751.4, 0.0937470
1751.99, 0.0936800
1752.59, 0.0939470
1753.18, 0.0942140
1753.77, 0.0940130
1754.37, 0.0936800
1754.96, 0.0939470
1755.56, 0.0943470
1756.15, 0.0943470
1756.74, 0.0940800
1757.34, 0.0940130
1757.94, 0.0940800
1758.53, 0.0941470
1759.13, 0.0942800
1759.73, 0.0944140
1760.32, 0.0942800
1760.92, 0.0942800
1761.52, 0.0945470
1762.12, 0.0946810
1762.72, 0.0947470
1763.32, 0.0946810
1763.92, 0.0948140
1764.52, 0.0950140
1765.12, 0.0949480
1765.72, 0.0946810
1766.32, 0.0946810
1766.92, 0.0948140
1767.53, 0.0949480
1768.13, 0.0950140
1768.73, 0.0950810
1769.34, 0.0950810
1769.94, 0.0950140
1770.55, 0.0951480
1771.15, 0.0952810
1771.76, 0.0954150
1772.36, 0.0953480
1772.97, 0.0952140
1773.57, 0.0952140
1774.18, 0.0953480
1774.79, 0.0954150
1775.4, 0.0952140
1776.0, 0.0952810
1776.61, 0.0954810
1777.22, 0.0956150
1777.83, 0.0956150
1778.44, 0.0958150
1779.05, 0.0958820
1779.66, 0.0958820
1780.27, 0.0958820
1780.88, 0.0958820
1781.5, 0.0958820
1782.11, 0.0958820
1782.72, 0.0958150
1783.33, 0.0958150
1783.95, 0.0961490
1784.56, 0.0961490
1785.18, 0.0959480
1785.79, 0.0960150
1786.41, 0.0963490
1787.02, 0.0964820
1787.64, 0.0962820
1788.26, 0.0960820
1788.87, 0.0962150
1789.49, 0.0965490
1790.11, 0.0967490
1790.73, 0.0965490
1791.35, 0.0964150
1791.96, 0.0964820
1792.58, 0.0964150
1793.21, 0.0962150
1793.83, 0.0963490
1794.45, 0.0965490
1795.07, 0.0967490
1795.69, 0.0969490
1796.31, 0.0969490
1796.93, 0.0969490
1797.56, 0.0969490
1798.18, 0.0968830
1798.8, 0.0969490
1799.43, 0.0970160
1800.05, 0.0970160
1800.68, 0.0969490
1801.3, 0.0968160
1801.93, 0.0969490
1802.56, 0.0971490
1803.18, 0.0974160
1803.81, 0.0974160
1804.44, 0.0972830
1805.07, 0.0972830
1805.7, 0.0972160
1806.33, 0.0970160
1806.95, 0.0972160
1807.58, 0.0973500
1808.22, 0.0972830
1808.85, 0.0970830
1809.48, 0.0972160
1810.11, 0.0974830
1810.74, 0.0976830
1811.38, 0.0979500
1812.01, 0.0979500
1812.64, 0.0977500
1813.28, 0.0974160
1813.91, 0.0975500
1814.55, 0.0978830
1815.18, 0.0980170
1815.82, 0.0977500
1816.45, 0.0979500
1817.09, 0.0983500
1817.73, 0.0983500
1818.36, 0.0980170
1819.0, 0.0979500
1819.64, 0.0981500
1820.28, 0.0981500
1820.92, 0.0979500
1821.56, 0.0979500
1822.2, 0.0981500
1822.84, 0.0978830
1823.48, 0.0980170
1824.12, 0.0982840
1824.76, 0.0983500
1825.41, 0.0983500
1826.05, 0.0982170
1826.69, 0.0983500
1827.34, 0.0987510
1827.98, 0.0987510
1828.63, 0.0986170
1829.27, 0.0986840
1829.92, 0.0989510
1830.56, 0.0988180
1831.21, 0.0986840
1831.86, 0.0988840
1832.5, 0.0989510
1833.15, 0.0989510
1833.8, 0.0989510
1834.45, 0.0990840
1835.1, 0.0989510
1835.75, 0.0988840
1836.4, 0.0990840
1837.05, 0.0990840
1837.7, 0.0990180
1838.35, 0.0991510
1839.01, 0.0992180
1839.66, 0.0988840
1840.31, 0.0989510
1840.96, 0.0992850
1841.62, 0.0994180
1842.27, 0.0994850
1842.93, 0.0994180
1843.58, 0.0994850
1844.24, 0.0996180
1844.9, 0.0998850
1845.55, 0.100085
1846.21, 0.0997520
1846.87, 0.0992180
1847.53, 0.0992850
1848.18, 0.0996850
1848.84, 0.0999520
1849.5, 0.100019
1850.16, 0.100085
1850.82, 0.100619
1851.48, 0.100753
1852.14, 0.100686
1852.81, 0.100419
1853.47, 0.100019
1854.13, 0.0999520
1854.8, 0.100152
1855.46, 0.100219
1856.12, 0.100285
1856.79, 0.100352
1857.45, 0.100619
1858.12, 0.100686
1858.79, 0.100753
1859.45, 0.100619
1860.12, 0.100753
1860.79, 0.100953
1861.46, 0.100886
1862.12, 0.101153
1862.79, 0.101420
1863.46, 0.101220
1864.13, 0.101086
1864.8, 0.101019
1865.48, 0.101153
1866.15, 0.101353
1866.82, 0.101286
1867.49, 0.100886
1868.16, 0.101019
1868.84, 0.101353
1869.51, 0.101353
1870.19, 0.101153
1870.86, 0.101019
1871.54, 0.101420
1872.21, 0.101353
1872.89, 0.100753
1873.56, 0.100953
1874.24, 0.101553
1874.92, 0.101620
1875.6, 0.101620
1876.28, 0.101420
1876.96, 0.101153
1877.64, 0.101286
1878.32, 0.101687
1879.0, 0.101620
1879.68, 0.101687
1880.36, 0.101887
1881.04, 0.102020
1881.73, 0.102154
1882.41, 0.102020
1883.09, 0.101887
1883.78, 0.101753
1884.46, 0.101954
1885.15, 0.102154
1885.83, 0.102220
1886.52, 0.102220
1887.21, 0.102220
1887.89, 0.102220
1888.58, 0.102087
1889.27, 0.101820
1889.96, 0.101820
1890.65, 0.102020
1891.34, 0.102354
1892.03, 0.102287
1892.72, 0.102220
1893.41, 0.102154
1894.1, 0.102154
1894.79, 0.102287
1895.49, 0.102621
1896.18, 0.102554
1896.87, 0.102287
1897.57, 0.102287
1898.26, 0.102354
1898.96, 0.102220
1899.65, 0.102020
1900.35, 0.102087
1901.05, 0.102287
1901.74, 0.102287
1902.44, 0.102154
1903.14, 0.102220
1903.84, 0.102487
1904.54, 0.102354
1905.24, 0.102087
1905.94, 0.102087
1906.64, 0.102154
1907.34, 0.102354
1908.04, 0.102487
1908.75, 0.102554
1909.45, 0.102487
1910.15, 0.102554
1910.86, 0.102688
1911.56, 0.102688
1912.27, 0.102754
1912.97, 0.102354
1913.68, 0.102287
1914.39, 0.102554
1915.09, 0.102688
1915.8, 0.102621
1916.51, 0.102754
1917.22, 0.102954
1917.93, 0.103088
1918.64, 0.103021
1919.35, 0.102821
1920.06, 0.102688
1920.77, 0.102754
1921.48, 0.102888
1922.19, 0.102888
1922.91, 0.103155
1923.62, 0.103155
1924.33, 0.103088
1925.05, 0.103221
1925.76, 0.103355
1926.48, 0.103288
1927.19, 0.103288
1927.91, 0.103288
1928.63, 0.103088
1929.35, 0.103155
1930.07, 0.103355
1930.78, 0.103355
1931.5, 0.103355
1932.22, 0.103622
1932.94, 0.103822
1933.66, 0.103822
1934.39, 0.103755
1935.11, 0.103688
1935.83, 0.103688
1936.55, 0.103755
1937.28, 0.104022
1938.0, 0.104155
1938.73, 0.104089
1939.45, 0.103955
1940.18, 0.104022
1940.9, 0.104089
1941.63, 0.104222
1942.36, 0.104356
1943.09, 0.104289
1943.81, 0.104222
1944.54, 0.104289
1945.27, 0.104556
1946.0, 0.104689
1946.73, 0.104689
1947.47, 0.104556
1948.2, 0.104489
1948.93, 0.104556
1949.66, 0.104556
1950.4, 0.104689
1951.13, 0.104756
1951.86, 0.104756
1952.6, 0.104823
1953.34, 0.105023
1954.07, 0.104889
1954.81, 0.104689
1955.55, 0.104889
1956.29, 0.105223
1957.02, 0.105290
1957.76, 0.105290
1958.5, 0.105423
1959.24, 0.105423
1959.98, 0.105490
1960.72, 0.105490
1961.47, 0.105356
1962.21, 0.105356
1962.95, 0.105423
1963.7, 0.105557
1964.44, 0.105890
1965.18, 0.106024
1965.93, 0.105824
1966.67, 0.105690
1967.42, 0.105757
1968.17, 0.105890
1968.92, 0.105957
1969.66, 0.106024
1970.41, 0.105957
1971.16, 0.106157
1971.91, 0.106357
1972.66, 0.106224
1973.41, 0.106090
1974.16, 0.106090
1974.92, 0.106291
1975.67, 0.106357
1976.42, 0.106357
1977.18, 0.106357
1977.93, 0.106357
1978.69, 0.106491
1979.44, 0.106491
1980.2, 0.106624
1980.95, 0.106557
1981.71, 0.106624
1982.47, 0.106824
1983.23, 0.106824
1983.99, 0.106758
1984.74, 0.106824
1985.51, 0.106891
1986.27, 0.106691
1987.03, 0.106824
1987.79, 0.107025
1988.55, 0.106891
1989.32, 0.106891
1990.08, 0.107091
1990.84, 0.107358
1991.61, 0.107425
1992.37, 0.107358
1993.14, 0.107225
1993.9, 0.107291
1994.67, 0.107358
1995.44, 0.107425
1996.21, 0.107492
1996.98, 0.107558
1997.75, 0.107492
1998.52, 0.107425
1999.29, 0.107625
2000.06, 0.107625
2000.83, 0.107558
2001.6, 0.107758
2002.38, 0.107825
2003.15, 0.107692
2003.93, 0.107758
2004.7, 0.107758
2005.48, 0.107892
2006.25, 0.108025
2007.03, 0.108092
2007.81, 0.108226
2008.58, 0.108292
2009.36, 0.108359
2010.14, 0.108492
2010.92, 0.108426
2011.7, 0.108426
2012.48, 0.108426
2013.26, 0.108626
2014.05, 0.108759
2014.83, 0.108693
2015.61, 0.108693
2016.4, 0.108960
2017.18, 0.108826
2017.97, 0.108759
2018.75, 0.108960
2019.54, 0.109093
2020.32, 0.109026
2021.11, 0.108960
2021.9, 0.109160
2022.69, 0.109160
2023.48, 0.109293
2024.27, 0.109360
2025.06, 0.109226
2025.85, 0.109293
2026.64, 0.109560
2027.44, 0.109827
2028.23, 0.109894
2029.02, 0.109960
2029.82, 0.109827
2030.61, 0.109827
2031.41, 0.109894
2032.2, 0.110027
2033.0, 0.110161
2033.8, 0.110227
2034.6, 0.110427
2035.4, 0.110494
2036.2, 0.110294
2037.0, 0.110294
2037.8, 0.110427
2038.6, 0.110494
2039.4, 0.110694
2040.2, 0.110828
2041.01, 0.110828
2041.81, 0.110828
2042.61, 0.110895
2043.42, 0.111161
2044.22, 0.111095
2045.03, 0.111095
2045.84, 0.111228
2046.65, 0.111428
2047.46, 0.111562
2048.26, 0.111562
2049.07, 0.111428
2049.88, 0.111428
2050.69, 0.111628
2051.51, 0.111762
2052.32, 0.111829
2053.13, 0.112029
2053.94, 0.112296
2054.76, 0.112296
2055.57, 0.112096
2056.39, 0.112029
2057.2, 0.111895
2058.02, 0.112029
2058.84, 0.112296
2059.66, 0.112629
2060.48, 0.112763
2061.29, 0.112829
2062.11, 0.112829
2062.94, 0.112696
2063.76, 0.112763
2064.58, 0.112696
2065.4, 0.112563
2066.22, 0.112563
2067.05, 0.112696
2067.87, 0.113030
2068.7, 0.113297
2069.52, 0.113297
2070.35, 0.113030
2071.18, 0.113230
2072.0, 0.113430
2072.83, 0.113697
2073.66, 0.113697
2074.49, 0.113563
2075.32, 0.113563
2076.15, 0.113630
2076.98, 0.113697
2077.82, 0.113697
2078.65, 0.113630
2079.48, 0.113563
2080.32, 0.113630
2081.15, 0.113764
2081.99, 0.113897
2082.83, 0.113897
2083.66, 0.113964
2084.5, 0.113964
2085.34, 0.114097
2086.18, 0.114097
2087.02, 0.114097
2087.86, 0.114164
2088.7, 0.114097
2089.54, 0.114097
2090.39, 0.114164
2091.23, 0.114364
2092.07, 0.114431
2092.92, 0.114431
2093.76, 0.114431
2094.61, 0.114498
2095.45, 0.114498
2096.3, 0.114498
2097.15, 0.114564
2098.0, 0.114698
2098.85, 0.114831
2099.7, 0.114831
2100.55, 0.114898
2101.4, 0.115031
2102.25, 0.115031
2103.1, 0.115098
2103.96, 0.115098
2104.81, 0.115165
2105.67, 0.115098
2106.52, 0.115031
2107.38, 0.115165
2108.24, 0.115098
2109.09, 0.115098
2109.95, 0.115232
2110.81, 0.115298
2111.67, 0.115298
2112.53, 0.115365
2113.39, 0.115432
2114.25, 0.115632
2115.12, 0.115632
2115.98, 0.115565
2116.84, 0.115765
2117.71, 0.115899
2118.58, 0.115832
2119.44, 0.115699
2120.31, 0.115632
2121.18, 0.115699
2122.04, 0.115832
2122.91, 0.116099
2123.78, 0.116366
2124.65, 0.116433
2125.52, 0.116366
2126.4, 0.116166
2127.27, 0.116166
2128.14, 0.116366
2129.02, 0.116499
2129.89, 0.116566
2130.77, 0.116499
2131.64, 0.116566
2132.52, 0.116633
2133.4, 0.116833
2134.27, 0.116633
2135.15, 0.116566
2136.03, 0.116766
2136.91, 0.117033
2137.79, 0.117100
2138.68, 0.117167
2139.56, 0.117233
2140.44, 0.117300
2141.33, 0.117300
2142.21, 0.117233
2143.1, 0.117300
2143.99, 0.117367
2144.87, 0.117433
2145.76, 0.117433
2146.65, 0.117500
2147.54, 0.117500
2148.43, 0.117567
2149.32, 0.117767
2150.21, 0.117700
2151.1, 0.117834
2151.99, 0.117900
2152.89, 0.117900
2153.78, 0.117900
2154.68, 0.117900
2155.57, 0.118034
2156.47, 0.118368
2157.37, 0.118434
2158.27, 0.118568
2159.16, 0.118434
2160.06, 0.118434
2160.96, 0.118501
2161.86, 0.118568
2162.77, 0.118634
2163.67, 0.118568
2164.57, 0.118701
2165.48, 0.118768
2166.38, 0.118768
2167.29, 0.118768
2168.2, 0.118768
2169.1, 0.118768
2170.01, 0.119035
2170.92, 0.119102
2171.83, 0.119035
2172.74, 0.119102
2173.65, 0.119168
2174.56, 0.119168
2175.47, 0.119168
2176.39, 0.119235
2177.3, 0.119368
2178.22, 0.119302
2179.13, 0.119235
2180.05, 0.119302
2180.96, 0.119368
2181.88, 0.119302
2182.8, 0.119502
2183.72, 0.119769
2184.64, 0.119702
2185.56, 0.119702
2186.48, 0.119702
2187.41, 0.119702
2188.33, 0.119835
2189.25, 0.119902
2190.18, 0.119835
2191.1, 0.119835
2192.03, 0.119969
2192.96, 0.119902
2193.89, 0.119902
2194.82, 0.119902
2195.74, 0.120036
2196.68, 0.120236
2197.61, 0.120169
2198.54, 0.120169
2199.47, 0.120102
2200.4, 0.120036
2201.34, 0.120169
2202.28, 0.120236
2203.21, 0.120236
2204.15, 0.120369
2205.08, 0.120236
2206.02, 0.120036
2206.96, 0.120169
2207.9, 0.120369
2208.84, 0.120503
2209.78, 0.120503
2210.73, 0.120503
2211.67, 0.120503
2212.61, 0.120503
2213.56, 0.120503
2214.5, 0.120569
2215.45, 0.120569
2216.4, 0.120436
2217.35, 0.120436
2218.3, 0.120436
2219.24, 0.120503
2220.2, 0.120503
2221.15, 0.120436
2222.1, 0.120369
2223.05, 0.120569
2224.0, 0.120703
2224.96, 0.120703
2225.91, 0.120770
2226.87, 0.120636
2227.83, 0.120569
2228.79, 0.120503
2229.74, 0.120503
2230.7, 0.120636
2231.66, 0.120836
2232.63, 0.120836
2233.59, 0.120770
2234.55, 0.120770
2235.51, 0.120836
2236.48, 0.120770
2237.44, 0.120636
2238.41, 0.120569
2239.38, 0.120770
2240.34, 0.120903
2241.31, 0.120903
2242.28, 0.120836
2243.25, 0.120903
2244.22, 0.120903
2245.19, 0.120770
2246.17, 0.120836
2247.14, 0.120970
2248.12, 0.121103
2249.09, 0.120970
2250.07, 0.120836
2251.04, 0.120836
2252.02, 0.120770
2253.0, 0.120836
2253.98, 0.120836
2254.96, 0.120836
2255.94, 0.120903
2256.92, 0.121036
2257.91, 0.121237
2258.89, 0.121170
2259.88, 0.121103
2260.86, 0.121036
2261.85, 0.121036
2262.83, 0.121103
2263.82, 0.121237
2264.81, 0.121170
2265.8, 0.121103
2266.79, 0.121237
2267.78, 0.121370
2268.78, 0.121504
2269.77, 0.121570
2270.76, 0.121437
2271.76, 0.121437
2272.75, 0.121504
2273.75, 0.121570
2274.75, 0.121437
2275.75, 0.121370
2276.75, 0.121370
2277.75, 0.121437
2278.75, 0.121570
2279.75, 0.121504
2280.75, 0.121370
2281.76, 0.121437
2282.76, 0.121437
2283.77, 0.121437
2284.77, 0.121504
2285.78, 0.121570
2286.79, 0.121704
2287.8, 0.121868
2288.81, 0.121758
2289.82, 0.121704
2290.83, 0.121649
2291.84, 0.121649
2292.86, 0.121758
2293.87, 0.121704
2294.89, 0.121430
2295.91, 0.121485
2296.92, 0.121594
