Database of Origin, USGS Spectral Database
Sample Description, See USGS database for additional info
Date Added,2017-07-03 06:06:52.567102

Data ID,USGS_sod02          
Sample ID, sodiumbicarbonate_gds55.20694
Mineral Name, sodiumbicarbonate
Material Class,Carbonate

Wavelength
1280.99, 0.0375910
1281.3, 0.0376390
1281.62, 0.0377430
1281.94, 0.0379570
1282.25, 0.0380950
1282.57, 0.0381990
1282.89, 0.0383580
1283.21, 0.0385100
1283.52, 0.0386410
1283.84, 0.0387870
1284.16, 0.0388900
1284.48, 0.0390010
1284.8, 0.0391600
1285.11, 0.0393400
1285.43, 0.0394430
1285.75, 0.0395950
1286.07, 0.0397270
1286.39, 0.0398030
1286.71, 0.0399130
1287.03, 0.0400240
1287.35, 0.0402380
1287.67, 0.0403830
1287.99, 0.0404390
1288.31, 0.0405770
1288.63, 0.0407430
1288.95, 0.0408330
1289.27, 0.0409850
1289.59, 0.0412060
1289.91, 0.0413030
1290.23, 0.0413930
1290.55, 0.0415520
1290.88, 0.0417240
1291.2, 0.0418280
1291.52, 0.0419940
1291.84, 0.0421600
1292.16, 0.0422910
1292.48, 0.0424500
1292.81, 0.0425540
1293.13, 0.0426990
1293.45, 0.0428240
1293.77, 0.0429620
1294.1, 0.0430790
1294.42, 0.0432180
1294.74, 0.0433420
1295.07, 0.0435290
1295.39, 0.0437080
1295.71, 0.0438880
1296.04, 0.0440400
1296.36, 0.0442270
1296.69, 0.0443790
1297.01, 0.0443790
1297.34, 0.0444960
1297.66, 0.0446830
1297.98, 0.0448420
1298.31, 0.0450010
1298.64, 0.0451810
1298.96, 0.0452570
1299.29, 0.0453740
1299.61, 0.0454990
1299.94, 0.0456160
1300.26, 0.0457540
1300.59, 0.0458860
1300.92, 0.0460100
1301.24, 0.0461550
1301.57, 0.0462730
1301.9, 0.0463970
1302.22, 0.0465770
1302.55, 0.0467150
1302.88, 0.0468330
1303.21, 0.0469570
1303.53, 0.0470750
1303.86, 0.0472410
1304.19, 0.0474000
1304.52, 0.0475660
1304.85, 0.0476550
1305.17, 0.0477450
1305.5, 0.0479800
1305.83, 0.0480980
1306.16, 0.0481260
1306.49, 0.0482430
1306.82, 0.0483330
1307.15, 0.0484370
1307.48, 0.0485200
1307.81, 0.0486230
1308.14, 0.0487820
1308.47, 0.0489620
1308.8, 0.0492110
1309.13, 0.0493630
1309.46, 0.0493490
1309.79, 0.0494040
1310.12, 0.0496260
1310.45, 0.0498120
1310.79, 0.0498950
1311.12, 0.0500060
1311.45, 0.0501090
1311.78, 0.0501720
1312.11, 0.0503100
1312.44, 0.0504200
1312.78, 0.0505450
1313.11, 0.0506830
1313.44, 0.0507450
1313.77, 0.0508560
1314.11, 0.0509870
1314.44, 0.0510500
1314.77, 0.0511880
1315.11, 0.0512910
1315.44, 0.0513540
1315.78, 0.0514370
1316.11, 0.0515330
1316.44, 0.0516920
1316.78, 0.0518100
1317.11, 0.0518860
1317.45, 0.0519900
1317.78, 0.0521070
1318.12, 0.0522110
1318.45, 0.0523080
1318.79, 0.0523150
1319.12, 0.0524110
1319.46, 0.0525840
1319.8, 0.0527020
1320.13, 0.0527360
1320.47, 0.0528470
1320.8, 0.0529780
1321.14, 0.0530890
1321.48, 0.0531230
1321.81, 0.0532550
1322.15, 0.0533650
1322.49, 0.0533450
1322.83, 0.0534690
1323.16, 0.0536070
1323.5, 0.0537180
1323.84, 0.0537800
1324.18, 0.0538910
1324.52, 0.0540430
1324.85, 0.0540700
1325.19, 0.0540840
1325.53, 0.0541330
1325.87, 0.0542290
1326.21, 0.0543470
1326.55, 0.0544370
1326.89, 0.0544780
1327.23, 0.0546100
1327.57, 0.0547550
1327.91, 0.0548650
1328.25, 0.0549140
1328.59, 0.0550100
1328.93, 0.0550930
1329.27, 0.0551420
1329.61, 0.0551900
1329.95, 0.0552940
1330.29, 0.0554040
1330.64, 0.0554870
1330.98, 0.0555220
1331.32, 0.0555430
1331.66, 0.0555910
1332.0, 0.0556670
1332.34, 0.0557990
1332.69, 0.0558950
1333.03, 0.0559160
1333.37, 0.0559510
1333.72, 0.0560540
1334.06, 0.0561720
1334.4, 0.0562130
1334.75, 0.0563030
1335.09, 0.0563790
1335.43, 0.0564620
1335.78, 0.0564900
1336.12, 0.0565450
1336.47, 0.0566000
1336.81, 0.0566420
1337.16, 0.0567520
1337.5, 0.0567730
1337.85, 0.0568220
1338.19, 0.0568560
1338.54, 0.0568490
1338.88, 0.0569530
1339.23, 0.0570640
1339.58, 0.0571260
1339.92, 0.0571810
1340.27, 0.0573120
1340.61, 0.0574160
1340.96, 0.0573950
1341.31, 0.0574020
1341.66, 0.0574780
1342.0, 0.0575470
1342.35, 0.0575750
1342.7, 0.0575750
1343.05, 0.0575820
1343.39, 0.0576030
1343.74, 0.0576990
1344.09, 0.0578170
1344.44, 0.0578790
1344.79, 0.0579070
1345.14, 0.0579620
1345.48, 0.0580310
1345.83, 0.0580590
1346.18, 0.0580730
1346.53, 0.0581350
1346.88, 0.0581760
1347.23, 0.0581900
1347.58, 0.0582730
1347.93, 0.0583490
1348.28, 0.0584110
1348.64, 0.0584390
1348.99, 0.0583980
1349.34, 0.0584390
1349.69, 0.0585500
1350.04, 0.0586400
1350.39, 0.0586600
1350.74, 0.0586460
1351.1, 0.0586740
1351.45, 0.0587640
1351.8, 0.0587920
1352.15, 0.0588470
1352.51, 0.0588880
1352.86, 0.0589020
1353.21, 0.0589160
1353.56, 0.0589300
1353.92, 0.0589640
1354.27, 0.0590340
1354.63, 0.0590960
1354.98, 0.0591230
1355.33, 0.0592060
1355.69, 0.0592890
1356.04, 0.0592200
1356.4, 0.0592060
1356.75, 0.0593520
1357.11, 0.0593790
1357.46, 0.0592890
1357.82, 0.0593380
1358.18, 0.0594000
1358.53, 0.0594410
1358.89, 0.0594480
1359.24, 0.0596350
1359.6, 0.0596630
1359.96, 0.0595730
1360.31, 0.0596490
1360.67, 0.0597250
1361.03, 0.0597040
1361.39, 0.0597660
1361.74, 0.0598560
1362.1, 0.0600290
1362.46, 0.0599810
1362.82, 0.0598220
1363.18, 0.0597660
1363.53, 0.0597800
1363.89, 0.0598700
1364.25, 0.0600290
1364.61, 0.0600980
1364.97, 0.0600360
1365.33, 0.0599530
1365.69, 0.0598770
1366.05, 0.0598840
1366.41, 0.0599460
1366.77, 0.0600080
1367.13, 0.0600360
1367.49, 0.0600840
1367.85, 0.0600980
1368.21, 0.0601880
1368.57, 0.0601260
1368.93, 0.0600290
1369.3, 0.0601470
1369.66, 0.0602710
1370.02, 0.0602360
1370.38, 0.0602090
1370.74, 0.0602640
1371.11, 0.0602360
1371.47, 0.0601740
1371.83, 0.0602290
1372.19, 0.0602780
1372.56, 0.0602640
1372.92, 0.0602230
1373.29, 0.0602640
1373.65, 0.0602780
1374.01, 0.0602920
1374.38, 0.0603060
1374.74, 0.0602850
1375.11, 0.0602920
1375.47, 0.0602990
1375.84, 0.0603260
1376.2, 0.0603680
1376.57, 0.0604230
1376.93, 0.0604780
1377.3, 0.0604510
1377.67, 0.0604230
1378.03, 0.0604440
1378.4, 0.0605130
1378.76, 0.0605340
1379.13, 0.0604710
1379.5, 0.0604440
1379.87, 0.0605060
1380.23, 0.0607060
1380.6, 0.0608240
1380.97, 0.0607340
1381.34, 0.0606170
1381.7, 0.0605680
1382.07, 0.0606930
1382.44, 0.0609000
1382.81, 0.0608170
1383.18, 0.0606860
1383.55, 0.0606860
1383.92, 0.0606650
1384.29, 0.0606300
1384.66, 0.0606650
1385.03, 0.0606580
1385.4, 0.0606440
1385.77, 0.0606650
1386.14, 0.0607200
1386.51, 0.0606720
1386.88, 0.0605960
1387.25, 0.0606170
1387.62, 0.0607340
1387.99, 0.0608170
1388.36, 0.0607410
1388.74, 0.0606580
1389.11, 0.0606100
1389.48, 0.0606030
1389.85, 0.0606440
1390.23, 0.0606230
1390.6, 0.0606100
1390.97, 0.0606170
1391.35, 0.0606580
1391.72, 0.0606860
1392.09, 0.0608100
1392.47, 0.0608170
1392.84, 0.0606510
1393.21, 0.0606170
1393.59, 0.0606300
1393.96, 0.0605960
1394.34, 0.0606300
1394.71, 0.0606930
1395.09, 0.0607550
1395.46, 0.0607060
1395.84, 0.0607000
1396.22, 0.0607480
1396.59, 0.0606860
1396.97, 0.0606580
1397.35, 0.0606230
1397.72, 0.0605540
1398.1, 0.0605540
1398.48, 0.0605750
1398.85, 0.0605750
1399.23, 0.0606300
1399.61, 0.0606860
1399.99, 0.0607000
1400.37, 0.0607690
1400.74, 0.0607060
1401.12, 0.0606170
1401.5, 0.0605750
1401.88, 0.0605610
1402.26, 0.0605470
1402.64, 0.0604990
1403.02, 0.0605060
1403.4, 0.0605340
1403.78, 0.0605340
1404.16, 0.0605540
1404.54, 0.0606650
1404.92, 0.0606720
1405.3, 0.0605130
1405.68, 0.0604300
1406.06, 0.0604160
1406.44, 0.0604710
1406.83, 0.0605060
1407.21, 0.0605130
1407.59, 0.0604510
1407.97, 0.0603540
1408.35, 0.0603610
1408.74, 0.0604370
1409.12, 0.0604990
1409.5, 0.0604710
1409.89, 0.0604160
1410.27, 0.0603470
1410.65, 0.0603190
1411.04, 0.0602990
1411.42, 0.0602920
1411.81, 0.0602640
1412.19, 0.0602920
1412.58, 0.0603190
1412.96, 0.0602500
1413.35, 0.0602020
1413.73, 0.0602570
1414.12, 0.0602920
1414.5, 0.0602570
1414.89, 0.0602290
1415.28, 0.0602360
1415.66, 0.0602290
1416.05, 0.0601740
1416.44, 0.0601470
1416.82, 0.0601470
1417.21, 0.0601400
1417.6, 0.0601330
1417.98, 0.0601330
1418.37, 0.0601190
1418.76, 0.0601120
1419.15, 0.0601120
1419.54, 0.0600980
1419.93, 0.0600910
1420.32, 0.0600430
1420.71, 0.0600220
1421.09, 0.0600290
1421.48, 0.0600220
1421.88, 0.0599670
1422.27, 0.0599460
1422.66, 0.0599740
1423.05, 0.0600010
1423.44, 0.0600290
1423.83, 0.0599880
1424.22, 0.0599390
1424.61, 0.0599180
1425.0, 0.0598980
1425.39, 0.0598700
1425.78, 0.0598560
1426.18, 0.0598910
1426.57, 0.0598910
1426.96, 0.0598700
1427.36, 0.0598560
1427.75, 0.0598150
1428.14, 0.0598560
1428.54, 0.0598420
1428.93, 0.0598350
1429.32, 0.0597940
1429.72, 0.0597660
1430.11, 0.0597530
1430.51, 0.0597320
1430.9, 0.0597390
1431.3, 0.0597730
1431.69, 0.0597940
1432.09, 0.0597800
1432.48, 0.0597460
1432.88, 0.0597180
1433.28, 0.0596830
1433.67, 0.0596700
1434.07, 0.0596830
1434.46, 0.0596830
1434.86, 0.0596700
1435.26, 0.0596490
1435.66, 0.0596350
1436.05, 0.0595870
1436.45, 0.0595380
1436.85, 0.0595520
1437.25, 0.0596140
1437.65, 0.0596140
1438.05, 0.0595240
1438.44, 0.0594830
1438.84, 0.0595110
1439.24, 0.0594690
1439.64, 0.0594350
1440.04, 0.0594140
1440.44, 0.0594070
1440.84, 0.0594350
1441.24, 0.0594550
1441.65, 0.0594480
1442.05, 0.0594140
1442.45, 0.0594410
1442.85, 0.0594210
1443.25, 0.0593860
1443.65, 0.0593790
1444.05, 0.0593650
1444.46, 0.0593520
1444.86, 0.0593310
1445.26, 0.0593100
1445.67, 0.0592890
1446.07, 0.0592760
1446.47, 0.0592410
1446.88, 0.0591990
1447.28, 0.0592550
1447.68, 0.0592820
1448.09, 0.0592550
1448.49, 0.0592060
1448.9, 0.0591990
1449.3, 0.0591510
1449.71, 0.0591170
1450.11, 0.0591650
1450.52, 0.0591860
1450.93, 0.0590960
1451.33, 0.0590610
1451.74, 0.0590820
1452.14, 0.0590890
1452.55, 0.0590610
1452.96, 0.0590410
1453.36, 0.0590270
1453.77, 0.0589780
1454.18, 0.0589440
1454.59, 0.0589710
1455.0, 0.0589510
1455.41, 0.0589090
1455.81, 0.0588540
1456.22, 0.0588610
1456.63, 0.0589090
1457.04, 0.0589020
1457.45, 0.0588540
1457.86, 0.0588190
1458.27, 0.0588120
1458.68, 0.0587990
1459.09, 0.0587780
1459.5, 0.0587430
1459.91, 0.0587640
1460.32, 0.0587230
1460.74, 0.0586600
1461.15, 0.0586670
1461.56, 0.0586810
1461.97, 0.0586950
1462.39, 0.0586740
1462.8, 0.0586400
1463.21, 0.0586190
1463.62, 0.0586050
1464.04, 0.0586050
1464.45, 0.0585640
1464.86, 0.0585640
1465.28, 0.0585290
1465.69, 0.0585080
1466.11, 0.0585010
1466.52, 0.0585150
1466.94, 0.0584940
1467.35, 0.0584460
1467.77, 0.0584110
1468.18, 0.0583980
1468.6, 0.0583630
1469.02, 0.0583350
1469.43, 0.0583080
1469.85, 0.0583150
1470.27, 0.0583080
1470.68, 0.0582590
1471.1, 0.0582460
1471.52, 0.0582320
1471.94, 0.0582460
1472.35, 0.0582800
1472.77, 0.0582520
1473.19, 0.0582460
1473.61, 0.0582390
1474.03, 0.0582250
1474.45, 0.0581900
1474.87, 0.0581140
1475.29, 0.0581140
1475.71, 0.0580930
1476.13, 0.0580800
1476.55, 0.0580870
1476.97, 0.0580870
1477.39, 0.0581000
1477.81, 0.0580870
1478.23, 0.0580590
1478.65, 0.0580170
1479.07, 0.0579970
1479.5, 0.0579970
1479.92, 0.0580240
1480.34, 0.0580040
1480.76, 0.0579760
1481.19, 0.0579480
1481.61, 0.0579690
1482.03, 0.0579480
1482.46, 0.0579140
1482.88, 0.0579000
1483.31, 0.0579000
1483.73, 0.0579000
1484.16, 0.0578930
1484.58, 0.0578580
1485.01, 0.0578720
1485.43, 0.0578650
1485.86, 0.0578580
1486.28, 0.0578380
1486.71, 0.0578030
1487.14, 0.0577890
1487.56, 0.0577760
1487.99, 0.0577820
1488.42, 0.0578170
1488.84, 0.0577890
1489.27, 0.0577340
1489.7, 0.0577270
1490.13, 0.0577060
1490.56, 0.0576990
1490.98, 0.0577340
1491.41, 0.0577200
1491.84, 0.0576720
1492.27, 0.0576650
1492.7, 0.0576790
1493.13, 0.0576990
1493.56, 0.0576790
1493.99, 0.0576790
1494.42, 0.0576720
1494.85, 0.0576370
1495.29, 0.0575960
1495.72, 0.0576100
1496.15, 0.0576230
1496.58, 0.0575960
1497.01, 0.0575750
1497.44, 0.0575680
1497.88, 0.0575610
1498.31, 0.0575340
1498.74, 0.0575470
1499.18, 0.0575540
1499.61, 0.0575340
1500.04, 0.0575060
1500.48, 0.0574850
1500.91, 0.0574920
1501.35, 0.0574920
1501.78, 0.0574640
1502.22, 0.0574580
1502.65, 0.0574370
1503.09, 0.0574230
1503.53, 0.0574160
1503.96, 0.0573880
1504.4, 0.0573810
1504.83, 0.0573610
1505.27, 0.0573330
1505.71, 0.0573190
1506.15, 0.0573540
1506.58, 0.0573540
1507.02, 0.0573190
1507.46, 0.0573050
1507.9, 0.0573120
1508.34, 0.0572710
1508.78, 0.0572500
1509.21, 0.0572430
1509.66, 0.0572430
1510.09, 0.0572360
1510.53, 0.0572290
1510.97, 0.0572160
1511.42, 0.0571740
1511.86, 0.0571260
1512.3, 0.0571400
1512.74, 0.0571460
1513.18, 0.0571400
1513.62, 0.0571190
1514.06, 0.0570770
1514.51, 0.0570500
1514.95, 0.0570500
1515.39, 0.0570220
1515.83, 0.0570080
1516.28, 0.0569940
1516.72, 0.0569810
1517.16, 0.0569600
1517.61, 0.0569320
1518.05, 0.0569250
1518.5, 0.0569390
1518.94, 0.0569050
1519.39, 0.0568770
1519.83, 0.0568770
1520.28, 0.0568490
1520.73, 0.0568280
1521.17, 0.0568150
1521.62, 0.0567940
1522.07, 0.0567730
1522.51, 0.0567520
1522.96, 0.0567180
1523.41, 0.0566760
1523.85, 0.0566690
1524.3, 0.0566630
1524.75, 0.0566490
1525.2, 0.0565800
1525.65, 0.0565170
1526.1, 0.0565170
1526.55, 0.0565450
1527.0, 0.0565730
1527.45, 0.0565520
1527.9, 0.0565040
1528.35, 0.0564760
1528.8, 0.0564550
1529.25, 0.0564070
1529.7, 0.0563450
1530.15, 0.0563520
1530.6, 0.0563380
1531.05, 0.0563100
1531.51, 0.0563240
1531.96, 0.0562890
1532.41, 0.0562620
1532.87, 0.0562550
1533.32, 0.0562060
1533.77, 0.0561230
1534.23, 0.0561300
1534.68, 0.0561650
1535.14, 0.0561440
1535.59, 0.0561030
1536.05, 0.0560890
1536.5, 0.0560890
1536.96, 0.0560750
1537.41, 0.0560400
1537.87, 0.0560270
1538.32, 0.0560340
1538.78, 0.0559710
1539.24, 0.0558950
1539.7, 0.0558950
1540.15, 0.0559020
1540.61, 0.0558750
1541.07, 0.0558400
1541.53, 0.0558050
1541.98, 0.0557990
1542.44, 0.0558050
1542.9, 0.0557780
1543.36, 0.0557360
1543.82, 0.0557220
1544.28, 0.0556950
1544.74, 0.0556460
1545.2, 0.0556400
1545.66, 0.0556260
1546.12, 0.0556050
1546.59, 0.0555700
1547.05, 0.0555500
1547.51, 0.0555360
1547.97, 0.0555150
1548.43, 0.0554870
1548.9, 0.0554740
1549.36, 0.0554530
1549.82, 0.0554320
1550.29, 0.0553980
1550.75, 0.0553980
1551.21, 0.0553700
1551.68, 0.0553350
1552.14, 0.0553080
1552.61, 0.0552800
1553.07, 0.0552590
1553.54, 0.0552390
1554.0, 0.0552250
1554.47, 0.0551560
1554.93, 0.0551420
1555.4, 0.0551420
1555.87, 0.0550930
1556.34, 0.0550590
1556.8, 0.0550590
1557.27, 0.0550380
1557.74, 0.0550040
1558.21, 0.0549900
1558.68, 0.0549900
1559.14, 0.0549760
1559.61, 0.0549210
1560.08, 0.0549210
1560.55, 0.0549280
1561.02, 0.0548580
1561.49, 0.0547960
1561.96, 0.0547890
1562.43, 0.0548030
1562.9, 0.0547820
1563.38, 0.0547620
1563.85, 0.0546990
1564.32, 0.0546580
1564.79, 0.0546790
1565.26, 0.0546860
1565.74, 0.0546510
1566.21, 0.0545960
1566.68, 0.0545540
1567.16, 0.0545470
1567.63, 0.0545200
1568.1, 0.0544710
1568.58, 0.0544230
1569.05, 0.0544020
1569.53, 0.0543750
1570.0, 0.0543330
1570.48, 0.0543050
1570.96, 0.0542980
1571.43, 0.0542710
1571.91, 0.0542430
1572.39, 0.0542090
1572.86, 0.0541880
1573.34, 0.0541670
1573.82, 0.0541190
1574.3, 0.0541120
1574.77, 0.0540980
1575.25, 0.0540630
1575.73, 0.0540150
1576.21, 0.0540080
1576.69, 0.0539870
1577.17, 0.0539670
1577.65, 0.0539670
1578.13, 0.0539250
1578.61, 0.0538630
1579.09, 0.0538210
1579.57, 0.0537520
1580.05, 0.0537320
1580.54, 0.0537250
1581.02, 0.0536760
1581.5, 0.0536350
1581.98, 0.0536210
1582.47, 0.0535930
1582.95, 0.0535520
1583.43, 0.0535310
1583.92, 0.0535170
1584.4, 0.0534900
1584.88, 0.0534620
1585.37, 0.0534340
1585.85, 0.0534070
1586.34, 0.0533720
1586.82, 0.0533510
1587.31, 0.0533170
1587.8, 0.0532550
1588.28, 0.0532200
1588.77, 0.0532060
1589.26, 0.0531790
1589.74, 0.0531650
1590.23, 0.0531030
1590.72, 0.0530750
1591.21, 0.0530470
1591.7, 0.0530200
1592.19, 0.0529990
1592.67, 0.0529570
1593.16, 0.0529510
1593.65, 0.0529160
1594.14, 0.0528540
1594.63, 0.0528120
1595.12, 0.0527980
1595.61, 0.0527780
1596.11, 0.0527430
1596.6, 0.0526950
1597.09, 0.0526740
1597.58, 0.0526260
1598.08, 0.0525770
1598.57, 0.0525430
1599.06, 0.0524870
1599.55, 0.0524530
1600.05, 0.0524390
1600.54, 0.0524250
1601.04, 0.0524040
1601.53, 0.0523840
1602.03, 0.0523210
1602.52, 0.0522730
1603.02, 0.0522520
1603.51, 0.0522250
1604.01, 0.0521830
1604.5, 0.0521210
1605.0, 0.0520860
1605.5, 0.0520520
1606.0, 0.0519970
1606.49, 0.0519620
1606.99, 0.0519480
1607.49, 0.0519210
1607.99, 0.0518650
1608.49, 0.0518030
1608.99, 0.0517620
1609.49, 0.0517410
1609.99, 0.0517060
1610.49, 0.0516720
1610.99, 0.0516370
1611.49, 0.0515890
1611.99, 0.0515400
1612.49, 0.0515060
1612.99, 0.0514920
1613.49, 0.0514370
1614.0, 0.0513740
1614.5, 0.0513190
1615.0, 0.0512780
1615.51, 0.0512360
1616.01, 0.0511600
1616.51, 0.0511320
1617.02, 0.0511260
1617.52, 0.0510910
1618.03, 0.0510630
1618.53, 0.0510010
1619.04, 0.0509390
1619.54, 0.0509110
1620.05, 0.0508630
1620.55, 0.0508150
1621.06, 0.0507590
1621.57, 0.0507250
1622.08, 0.0506900
1622.58, 0.0506420
1623.09, 0.0505930
1623.6, 0.0505240
1624.11, 0.0504760
1624.62, 0.0504410
1625.13, 0.0504070
1625.64, 0.0503510
1626.15, 0.0502890
1626.66, 0.0502480
1627.17, 0.0502060
1627.68, 0.0501370
1628.19, 0.0500890
1628.7, 0.0500470
1629.21, 0.0500130
1629.72, 0.0499640
1630.24, 0.0499020
1630.75, 0.0498540
1631.26, 0.0497980
1631.78, 0.0497500
1632.29, 0.0496950
1632.8, 0.0496190
1633.32, 0.0496120
1633.83, 0.0495630
1634.35, 0.0495010
1634.86, 0.0494800
1635.38, 0.0494320
1635.9, 0.0493630
1636.41, 0.0492800
1636.93, 0.0492250
1637.45, 0.0491760
1637.96, 0.0491490
1638.48, 0.0491350
1639.0, 0.0490590
1639.52, 0.0489970
1640.04, 0.0489830
1640.56, 0.0489480
1641.08, 0.0488790
1641.59, 0.0488310
1642.11, 0.0488100
1642.63, 0.0487750
1643.16, 0.0487270
1643.68, 0.0486720
1644.2, 0.0486230
1644.72, 0.0485540
1645.24, 0.0485130
1645.76, 0.0484710
1646.29, 0.0483880
1646.81, 0.0483470
1647.33, 0.0483190
1647.86, 0.0482780
1648.38, 0.0482150
1648.9, 0.0481670
1649.43, 0.0481320
1649.95, 0.0480700
1650.48, 0.0480150
1651.0, 0.0479530
1651.53, 0.0478840
1652.06, 0.0478210
1652.58, 0.0477660
1653.11, 0.0477250
1653.64, 0.0476900
1654.17, 0.0476490
1654.69, 0.0475860
1655.22, 0.0475170
1655.75, 0.0474830
1656.28, 0.0474340
1656.81, 0.0473510
1657.34, 0.0472750
1657.87, 0.0472200
1658.4, 0.0471780
1658.93, 0.0471440
1659.46, 0.0470820
1659.99, 0.0469990
1660.52, 0.0469230
1661.05, 0.0468540
1661.59, 0.0467980
1662.12, 0.0467640
1662.65, 0.0467080
1663.19, 0.0466390
1663.72, 0.0465700
1664.26, 0.0465080
1664.79, 0.0464460
1665.32, 0.0463770
1665.86, 0.0463350
1666.39, 0.0462660
1666.93, 0.0461830
1667.47, 0.0461070
1668.0, 0.0460520
1668.54, 0.0459830
1669.08, 0.0459130
1669.61, 0.0458720
1670.15, 0.0458240
1670.69, 0.0457540
1671.23, 0.0456850
1671.77, 0.0456230
1672.31, 0.0455610
1672.85, 0.0455190
1673.39, 0.0454570
1673.93, 0.0454020
1674.47, 0.0453260
1675.01, 0.0452220
1675.55, 0.0451530
1676.09, 0.0450980
1676.64, 0.0450560
1677.18, 0.0450290
1677.72, 0.0449940
1678.26, 0.0449460
1678.81, 0.0449110
1679.35, 0.0448420
1679.89, 0.0447800
1680.44, 0.0447110
1680.98, 0.0446970
1681.53, 0.0446480
1682.07, 0.0445930
1682.62, 0.0445520
1683.17, 0.0445030
1683.71, 0.0444070
1684.26, 0.0443240
1684.81, 0.0442890
1685.36, 0.0442680
1685.9, 0.0442200
1686.45, 0.0441720
1687.0, 0.0441370
1687.55, 0.0440950
1688.1, 0.0440260
1688.65, 0.0439640
1689.2, 0.0439020
1689.75, 0.0438400
1690.3, 0.0437980
1690.85, 0.0437770
1691.41, 0.0437430
1691.96, 0.0437010
1692.51, 0.0436460
1693.06, 0.0436120
1693.61, 0.0435360
1694.17, 0.0434530
1694.72, 0.0434040
1695.28, 0.0434040
