Database of Origin, USGS Spectral Database
Sample Description, See USGS database for additional info
Date Added,2016-08-10 03:01:07.983973

Data ID,USGS_hyp08          
Sample ID, hypersthene_pyx02.10548
Mineral Name, hypersthene
Material Class,Inosilicate

Wavelength
1607.49, 0.193653
1607.99, 0.193618
1608.49, 0.193394
1608.99, 0.193515
1609.49, 0.193480
1609.99, 0.193446
1610.49, 0.193497
1610.99, 0.193359
1611.49, 0.193204
1611.99, 0.193135
1612.49, 0.193032
1612.99, 0.193083
1613.49, 0.193152
1614.0, 0.193135
1614.5, 0.193118
1615.0, 0.192928
1615.51, 0.192756
1616.01, 0.192842
1616.51, 0.192807
1617.02, 0.192687
1617.52, 0.192687
1618.03, 0.192566
1618.53, 0.192428
1619.04, 0.192376
1619.54, 0.192169
1620.05, 0.192187
1620.55, 0.192187
1621.06, 0.192031
1621.57, 0.192049
1622.08, 0.191911
1622.58, 0.191842
1623.09, 0.191549
1623.6, 0.191255
1624.11, 0.191342
1624.62, 0.191393
1625.13, 0.191290
1625.64, 0.191359
1626.15, 0.191204
1626.66, 0.190997
1627.17, 0.191014
1627.68, 0.190755
1628.19, 0.190652
1628.7, 0.190652
1629.21, 0.190497
1629.72, 0.190341
1630.24, 0.190134
1630.75, 0.190203
1631.26, 0.190203
1631.78, 0.190048
1632.29, 0.190014
1632.8, 0.189945
1633.32, 0.190203
1633.83, 0.190048
1634.35, 0.189824
1634.86, 0.189686
1635.38, 0.189479
1635.9, 0.189410
1636.41, 0.189514
1636.93, 0.189358
1637.45, 0.189255
1637.96, 0.189186
1638.48, 0.188962
1639.0, 0.188737
1639.52, 0.188703
1640.04, 0.188858
1640.56, 0.188824
1641.08, 0.188582
1641.59, 0.188410
1642.11, 0.188117
1642.63, 0.187892
1643.16, 0.187841
1643.68, 0.187892
1644.2, 0.188030
1644.72, 0.187961
1645.24, 0.187910
1645.76, 0.187927
1646.29, 0.187582
1646.81, 0.187254
1647.33, 0.187341
1647.86, 0.187289
1648.38, 0.187237
1648.9, 0.187185
1649.43, 0.186944
1649.95, 0.186771
1650.48, 0.186978
1651.0, 0.186927
1651.53, 0.186771
1652.06, 0.186599
1652.58, 0.186461
1653.11, 0.186496
1653.64, 0.186530
1654.17, 0.186099
1654.69, 0.185737
1655.22, 0.185668
1655.75, 0.185857
1656.28, 0.185754
1656.81, 0.185650
1657.34, 0.185444
1657.87, 0.185357
1658.4, 0.185513
1658.93, 0.185478
1659.46, 0.185271
1659.99, 0.185288
1660.52, 0.185237
1661.05, 0.185081
1661.59, 0.184719
1662.12, 0.184461
1662.65, 0.184547
1663.19, 0.184512
1663.72, 0.184547
1664.26, 0.184323
1664.79, 0.184288
1665.32, 0.184288
1665.86, 0.183995
1666.39, 0.184116
1666.93, 0.184081
1667.47, 0.183805
1668.0, 0.183547
1668.54, 0.183426
1669.08, 0.183598
1669.61, 0.183512
1670.15, 0.183478
1670.69, 0.183271
1671.23, 0.182891
1671.77, 0.182891
1672.31, 0.183012
1672.85, 0.183064
1673.39, 0.182857
1673.93, 0.182701
1674.47, 0.182546
1675.01, 0.182288
1675.55, 0.182098
1676.09, 0.182132
1676.64, 0.182253
1677.18, 0.182288
1677.72, 0.182063
1678.26, 0.181753
1678.81, 0.181546
1679.35, 0.181667
1679.89, 0.181529
1680.44, 0.181322
1680.98, 0.181218
1681.53, 0.181080
1682.07, 0.181149
1682.62, 0.181167
1683.17, 0.181184
1683.71, 0.181011
1684.26, 0.180942
1684.81, 0.180477
1685.36, 0.180201
1685.9, 0.180166
1686.45, 0.180339
1687.0, 0.180270
1687.55, 0.180046
1688.1, 0.179925
1688.65, 0.179856
1689.2, 0.179683
1689.75, 0.179683
1690.3, 0.179804
1690.85, 0.179614
1691.41, 0.179494
1691.96, 0.179683
1692.51, 0.179477
1693.06, 0.179339
1693.61, 0.179201
1694.17, 0.179252
1694.72, 0.179287
1695.28, 0.179045
1695.83, 0.178890
1696.39, 0.178838
1696.94, 0.178597
1697.5, 0.178511
1698.05, 0.178494
1698.61, 0.178321
1699.17, 0.178218
1699.72, 0.178183
1700.28, 0.177855
1700.84, 0.177907
1701.4, 0.178045
1701.95, 0.178011
1702.51, 0.177890
1703.07, 0.177752
1703.63, 0.177717
1704.19, 0.177579
1704.75, 0.177166
1705.31, 0.176924
1705.88, 0.177166
1706.44, 0.177217
1707.0, 0.177010
1707.56, 0.176838
1708.12, 0.176717
1708.69, 0.176596
1709.25, 0.176510
1709.81, 0.176321
1710.38, 0.176269
1710.94, 0.176269
1711.51, 0.176200
1712.07, 0.176114
1712.64, 0.176183
1713.2, 0.176062
1713.77, 0.175872
1714.34, 0.175907
1714.9, 0.175907
1715.47, 0.175769
1716.04, 0.175665
1716.61, 0.175527
1717.18, 0.175389
1717.74, 0.175303
1718.31, 0.175079
1718.88, 0.174993
1719.45, 0.174906
1720.02, 0.174975
1720.59, 0.175148
1721.17, 0.175182
1721.74, 0.174837
1722.31, 0.174648
1722.88, 0.174510
1723.45, 0.174561
1724.03, 0.174579
1724.6, 0.174424
1725.18, 0.174286
1725.75, 0.174337
1726.33, 0.174475
1726.9, 0.174234
1727.48, 0.174113
1728.05, 0.174165
1728.63, 0.173941
1729.2, 0.173596
1729.78, 0.173303
1730.36, 0.173354
1730.94, 0.173458
1731.51, 0.173285
1732.09, 0.173182
1732.67, 0.173199
1733.25, 0.173234
1733.83, 0.173199
1734.41, 0.172940
1734.99, 0.172889
1735.57, 0.172958
1736.15, 0.172975
1736.73, 0.172871
1737.32, 0.172699
1737.9, 0.172682
1738.48, 0.172664
1739.07, 0.172440
1739.65, 0.172320
1740.23, 0.172285
1740.82, 0.172337
1741.4, 0.172233
1741.99, 0.171940
1742.57, 0.171871
1743.16, 0.171957
1743.74, 0.171854
1744.33, 0.171733
1744.92, 0.171612
1745.51, 0.171664
1746.09, 0.171716
1746.68, 0.171612
1747.27, 0.171492
1747.86, 0.171440
1748.45, 0.171388
1749.04, 0.171371
1749.63, 0.171406
1750.22, 0.171285
1750.81, 0.171026
1751.4, 0.171043
1751.99, 0.171026
1752.59, 0.170750
1753.18, 0.170578
1753.77, 0.170664
1754.37, 0.170716
1754.96, 0.170560
1755.56, 0.170474
1756.15, 0.170457
1756.74, 0.170491
1757.34, 0.170457
1757.94, 0.170285
1758.53, 0.170250
1759.13, 0.170267
1759.73, 0.170216
1760.32, 0.170009
1760.92, 0.169888
1761.52, 0.169922
1762.12, 0.170078
1762.72, 0.169940
1763.32, 0.169853
1763.92, 0.169767
1764.52, 0.169526
1765.12, 0.169405
1765.72, 0.169422
1766.32, 0.169371
1766.92, 0.169422
1767.53, 0.169302
1768.13, 0.169164
1768.73, 0.169215
1769.34, 0.169302
1769.94, 0.169215
1770.55, 0.169008
1771.15, 0.168974
1771.76, 0.168974
1772.36, 0.168888
1772.97, 0.168836
1773.57, 0.168767
1774.18, 0.168715
1774.79, 0.168577
1775.4, 0.168474
1776.0, 0.168388
1776.61, 0.168405
1777.22, 0.168422
1777.83, 0.168370
1778.44, 0.168267
1779.05, 0.168267
1779.66, 0.168422
1780.27, 0.168370
1780.88, 0.168129
1781.5, 0.168181
1782.11, 0.168250
1782.72, 0.168146
1783.33, 0.167956
1783.95, 0.167939
1784.56, 0.167922
1785.18, 0.167887
1785.79, 0.167870
1786.41, 0.167818
1787.02, 0.167629
1787.64, 0.167439
1788.26, 0.167491
1788.87, 0.167422
1789.49, 0.167491
1790.11, 0.167542
1790.73, 0.167439
1791.35, 0.167370
1791.96, 0.167353
1792.58, 0.167267
1793.21, 0.167094
1793.83, 0.167111
1794.45, 0.167267
1795.07, 0.167198
1795.69, 0.167129
1796.31, 0.167025
1796.93, 0.167060
1797.56, 0.167042
1798.18, 0.166922
1798.8, 0.166922
1799.43, 0.167060
1800.05, 0.167008
1800.68, 0.166887
1801.3, 0.166922
1801.93, 0.166956
1802.56, 0.166904
1803.18, 0.166801
1803.81, 0.166680
1804.44, 0.166577
1805.07, 0.166628
1805.7, 0.166646
1806.33, 0.166594
1806.95, 0.166542
1807.58, 0.166525
1808.22, 0.166542
1808.85, 0.166456
1809.48, 0.166353
1810.11, 0.166335
1810.74, 0.166353
1811.38, 0.166387
1812.01, 0.166439
1812.64, 0.166577
1813.28, 0.166542
1813.91, 0.166439
1814.55, 0.166370
1815.18, 0.166249
1815.82, 0.166197
1816.45, 0.166163
1817.09, 0.166232
1817.73, 0.166249
1818.36, 0.166266
1819.0, 0.166197
1819.64, 0.166042
1820.28, 0.165973
1820.92, 0.165973
1821.56, 0.165818
1822.2, 0.165818
1822.84, 0.165990
1823.48, 0.166128
1824.12, 0.166128
1824.76, 0.166042
1825.41, 0.165835
1826.05, 0.165645
1826.69, 0.165870
1827.34, 0.166008
1827.98, 0.165990
1828.63, 0.165973
1829.27, 0.166008
1829.92, 0.165973
1830.56, 0.165835
1831.21, 0.165749
1831.86, 0.165749
1832.5, 0.165766
1833.15, 0.165956
1833.8, 0.165956
1834.45, 0.165749
1835.1, 0.165732
1835.75, 0.165732
1836.4, 0.165783
1837.05, 0.165749
1837.7, 0.165645
1838.35, 0.165870
1839.01, 0.165990
1839.66, 0.165697
1840.31, 0.165645
1840.96, 0.165852
1841.62, 0.165697
1842.27, 0.165939
1842.93, 0.166266
1843.58, 0.166094
1844.24, 0.165887
1844.9, 0.165904
1845.55, 0.166025
1846.21, 0.165870
1846.87, 0.165559
1847.53, 0.165714
1848.18, 0.165732
1848.84, 0.165887
1849.5, 0.165956
1850.16, 0.165990
1850.82, 0.166025
1851.48, 0.165887
1852.14, 0.165904
1852.81, 0.166059
1853.47, 0.165939
1854.13, 0.165887
1854.8, 0.166180
1855.46, 0.166215
1856.12, 0.165939
1856.79, 0.165835
1857.45, 0.166025
1858.12, 0.166215
1858.79, 0.166146
1859.45, 0.165939
1860.12, 0.166025
1860.79, 0.166232
1861.46, 0.166353
1862.12, 0.166473
1862.79, 0.166577
1863.46, 0.166404
1864.13, 0.166249
1864.8, 0.166370
1865.48, 0.166421
1866.15, 0.166577
1866.82, 0.166508
1867.49, 0.166249
1868.16, 0.166335
1868.84, 0.166594
1869.51, 0.166680
1870.19, 0.166456
1870.86, 0.166059
1871.54, 0.166301
1872.21, 0.166542
1872.89, 0.166456
1873.56, 0.166559
1874.24, 0.166732
1874.92, 0.166715
1875.6, 0.166818
1876.28, 0.166835
1876.96, 0.166680
1877.64, 0.166818
1878.32, 0.167042
1879.0, 0.167249
1879.68, 0.167284
1880.36, 0.167163
1881.04, 0.167180
1881.73, 0.167336
1882.41, 0.167525
1883.09, 0.167473
1883.78, 0.167249
1884.46, 0.167370
1885.15, 0.167629
1885.83, 0.167784
1886.52, 0.167732
1887.21, 0.167629
1887.89, 0.167698
1888.58, 0.167784
1889.27, 0.167749
1889.96, 0.167611
1890.65, 0.167939
1891.34, 0.168008
1892.03, 0.167974
1892.72, 0.168025
1893.41, 0.168112
1894.1, 0.168163
1894.79, 0.168198
1895.49, 0.168284
1896.18, 0.168405
1896.87, 0.168422
1897.57, 0.168439
1898.26, 0.168388
1898.96, 0.168232
1899.65, 0.168129
1900.35, 0.168439
1901.05, 0.168784
1901.74, 0.168853
1902.44, 0.168681
1903.14, 0.168767
1903.84, 0.168922
1904.54, 0.168836
1905.24, 0.168784
1905.94, 0.168939
1906.64, 0.168974
1907.34, 0.169233
1908.04, 0.169405
1908.75, 0.169491
1909.45, 0.169612
1910.15, 0.169698
1910.86, 0.169612
1911.56, 0.169629
1912.27, 0.169802
1912.97, 0.169819
1913.68, 0.169836
1914.39, 0.170095
1915.09, 0.170250
1915.8, 0.170285
1916.51, 0.170371
1917.22, 0.170629
1917.93, 0.170802
1918.64, 0.170802
1919.35, 0.170664
1920.06, 0.170509
1920.77, 0.170595
1921.48, 0.170940
1922.19, 0.171233
1922.91, 0.171423
1923.62, 0.171406
1924.33, 0.171440
1925.05, 0.171578
1925.76, 0.171716
1926.48, 0.171819
1927.19, 0.171888
1927.91, 0.171854
1928.63, 0.172113
1929.35, 0.172302
1930.07, 0.172406
1930.78, 0.172544
1931.5, 0.172647
1932.22, 0.172716
1932.94, 0.172785
1933.66, 0.172889
1934.39, 0.172958
1935.11, 0.173078
1935.83, 0.173268
1936.55, 0.173354
1937.28, 0.173423
1938.0, 0.173561
1938.73, 0.173699
1939.45, 0.173768
1940.18, 0.173923
1940.9, 0.174010
1941.63, 0.174251
1942.36, 0.174406
1943.09, 0.174406
1943.81, 0.174475
1944.54, 0.174648
1945.27, 0.174768
1946.0, 0.174889
1946.73, 0.174975
1947.47, 0.175062
1948.2, 0.175234
1948.93, 0.175389
1949.66, 0.175476
1950.4, 0.175613
1951.13, 0.175700
1951.86, 0.175803
1952.6, 0.175993
1953.34, 0.176200
1954.07, 0.176390
1954.81, 0.176441
1955.55, 0.176441
1956.29, 0.176579
1957.02, 0.176838
1957.76, 0.177148
1958.5, 0.177269
1959.24, 0.177286
1959.98, 0.177424
1960.72, 0.177562
1961.47, 0.177648
1962.21, 0.177769
1962.95, 0.177924
1963.7, 0.178131
1964.44, 0.178304
1965.18, 0.178442
1965.93, 0.178614
1966.67, 0.178769
1967.42, 0.178856
1968.17, 0.178959
1968.92, 0.179097
1969.66, 0.179287
1970.41, 0.179442
1971.16, 0.179632
1971.91, 0.179770
1972.66, 0.179959
1973.41, 0.180046
1974.16, 0.180235
1974.92, 0.180494
1975.67, 0.180597
1976.42, 0.180649
1977.18, 0.180873
1977.93, 0.180977
1978.69, 0.181132
1979.44, 0.181391
1980.2, 0.181580
1980.95, 0.181667
1981.71, 0.181856
1982.47, 0.182012
1983.23, 0.182167
1983.99, 0.182391
1984.74, 0.182598
1985.51, 0.182701
1986.27, 0.182839
1987.03, 0.183081
1987.79, 0.183340
1988.55, 0.183512
1989.32, 0.183684
1990.08, 0.183822
1990.84, 0.183943
1991.61, 0.184202
1992.37, 0.184443
1993.14, 0.184599
1993.9, 0.184754
1994.67, 0.184961
1995.44, 0.185185
1996.21, 0.185340
1996.98, 0.185547
1997.75, 0.185737
1998.52, 0.185909
1999.29, 0.186082
2000.06, 0.186306
2000.83, 0.186478
2001.6, 0.186685
2002.38, 0.186927
2003.15, 0.187168
2003.93, 0.187375
2004.7, 0.187582
2005.48, 0.187685
2006.25, 0.187944
2007.03, 0.188237
2007.81, 0.188410
2008.58, 0.188548
2009.36, 0.188720
2010.14, 0.188927
2010.92, 0.189134
2011.7, 0.189272
2012.48, 0.189376
2013.26, 0.189617
2014.05, 0.189927
2014.83, 0.190221
2015.61, 0.190514
2016.4, 0.190617
2017.18, 0.190790
2017.97, 0.191066
2018.75, 0.191273
2019.54, 0.191462
2020.32, 0.191583
2021.11, 0.191911
2021.9, 0.192187
2022.69, 0.192376
2023.48, 0.192601
2024.27, 0.192773
2025.06, 0.193066
2025.85, 0.193256
2026.64, 0.193325
2027.44, 0.193566
2028.23, 0.193877
2029.02, 0.194049
2029.82, 0.194273
2030.61, 0.194532
2031.41, 0.194842
2032.2, 0.195067
2033.0, 0.195360
2033.8, 0.195601
2034.6, 0.195774
2035.4, 0.196050
2036.2, 0.196326
2037.0, 0.196515
2037.8, 0.196671
2038.6, 0.196981
2039.4, 0.197205
2040.2, 0.197447
2041.01, 0.197723
2041.81, 0.197929
2042.61, 0.198223
2043.42, 0.198447
2044.22, 0.198637
2045.03, 0.198826
2045.84, 0.198981
2046.65, 0.199309
2047.46, 0.199706
2048.26, 0.199964
2049.07, 0.200154
2049.88, 0.200378
2050.69, 0.200585
2051.51, 0.200775
2052.32, 0.201103
2053.13, 0.201430
2053.94, 0.201655
2054.76, 0.201758
2055.57, 0.201896
2056.39, 0.202224
2057.2, 0.202620
2058.02, 0.202827
2058.84, 0.203103
2059.66, 0.203327
2060.48, 0.203603
2061.29, 0.203828
2062.11, 0.204017
2062.94, 0.204190
2063.76, 0.204466
2064.58, 0.204742
2065.4, 0.205017
2066.22, 0.205345
2067.05, 0.205569
2067.87, 0.205828
2068.7, 0.206190
2069.52, 0.206414
2070.35, 0.206656
2071.18, 0.207001
2072.0, 0.207294
2072.83, 0.207570
2073.66, 0.207811
2074.49, 0.207932
2075.32, 0.208122
2076.15, 0.208467
2076.98, 0.208863
2077.82, 0.209139
2078.65, 0.209381
2079.48, 0.209553
2080.32, 0.209898
2081.15, 0.210226
2081.99, 0.210433
2082.83, 0.210760
2083.66, 0.211002
2084.5, 0.211209
2085.34, 0.211433
2086.18, 0.211795
2087.02, 0.212088
2087.86, 0.212381
2088.7, 0.212554
2089.54, 0.212726
2090.39, 0.213020
2091.23, 0.213502
2092.07, 0.213882
2092.92, 0.214071
2093.76, 0.214330
2094.61, 0.214572
2095.45, 0.214865
2096.3, 0.215158
2097.15, 0.215486
2098.0, 0.215882
2098.85, 0.216158
2099.7, 0.216417
2100.55, 0.216641
2101.4, 0.216917
2102.25, 0.217262
2103.1, 0.217486
2103.96, 0.217710
2104.81, 0.218055
2105.67, 0.218417
2106.52, 0.218624
2107.38, 0.218918
2108.24, 0.219228
2109.09, 0.219469
2109.95, 0.219780
2110.81, 0.220090
2111.67, 0.220297
2112.53, 0.220677
2113.39, 0.221039
2114.25, 0.221332
2115.12, 0.221573
2115.98, 0.221832
2116.84, 0.222143
2117.71, 0.222487
2118.58, 0.222850
2119.44, 0.223212
2120.31, 0.223522
2121.18, 0.223815
2122.04, 0.224109
2122.91, 0.224333
2123.78, 0.224660
2124.65, 0.224988
2125.52, 0.225247
2126.4, 0.225454
2127.27, 0.225799
2128.14, 0.226126
2129.02, 0.226368
2129.89, 0.226661
2130.77, 0.226989
2131.64, 0.227333
2132.52, 0.227592
2133.4, 0.227903
2134.27, 0.228144
2135.15, 0.228454
2136.03, 0.228851
2136.91, 0.229144
2137.79, 0.229386
2138.68, 0.229696
2139.56, 0.230041
2140.44, 0.230420
2141.33, 0.230662
2142.21, 0.230903
2143.1, 0.231214
2143.99, 0.231559
2144.87, 0.231835
2145.76, 0.232093
2146.65, 0.232404
2147.54, 0.232714
2148.43, 0.233007
2149.32, 0.233335
2150.21, 0.233628
2151.1, 0.233904
2151.99, 0.234163
2152.89, 0.234404
2153.78, 0.234766
2154.68, 0.235129
2155.57, 0.235405
2156.47, 0.235698
2157.37, 0.235939
2158.27, 0.236250
2159.16, 0.236577
2160.06, 0.236819
2160.96, 0.237095
2161.86, 0.237405
2162.77, 0.237698
2163.67, 0.237940
2164.57, 0.238181
2165.48, 0.238474
2166.38, 0.238767
2167.29, 0.239112
2168.2, 0.239371
2169.1, 0.239612
2170.01, 0.239940
2170.92, 0.240216
2171.83, 0.240526
2172.74, 0.240871
2173.65, 0.241078
2174.56, 0.241372
2175.47, 0.241682
2176.39, 0.241923
2177.3, 0.242182
2178.22, 0.242527
2179.13, 0.242786
2180.05, 0.243062
2180.96, 0.243338
2181.88, 0.243596
2182.8, 0.243838
2183.72, 0.244079
2184.64, 0.244441
2185.56, 0.244700
2186.48, 0.244872
2187.41, 0.245148
2188.33, 0.245459
2189.25, 0.245804
2190.18, 0.246062
2191.1, 0.246287
2192.03, 0.246459
2192.96, 0.246735
2193.89, 0.247097
2194.82, 0.247459
2195.74, 0.247701
2196.68, 0.247942
2197.61, 0.248166
2198.54, 0.248391
2199.47, 0.248684
2200.4, 0.249098
2201.34, 0.249408
2202.28, 0.249632
2203.21, 0.249856
2204.15, 0.250115
2205.08, 0.250270
2206.02, 0.250546
2206.96, 0.250788
2207.9, 0.250995
2208.84, 0.251288
2209.78, 0.251615
2210.73, 0.251891
2211.67, 0.252047
2212.61, 0.252271
2213.56, 0.252599
2214.5, 0.252874
2215.45, 0.253116
2216.4, 0.253323
2217.35, 0.253599
2218.3, 0.253875
2219.24, 0.254237
2220.2, 0.254461
2221.15, 0.254582
2222.1, 0.254927
2223.05, 0.255220
2224.0, 0.255410
2224.96, 0.255617
2225.91, 0.255806
2226.87, 0.256048
2227.83, 0.256324
2228.79, 0.256600
2229.74, 0.256789
2230.7, 0.257065
2231.66, 0.257358
2232.63, 0.257565
2233.59, 0.257858
2234.55, 0.258117
2235.51, 0.258307
2236.48, 0.258548
2237.44, 0.258738
2238.41, 0.258979
2239.38, 0.259255
2240.34, 0.259531
2241.31, 0.259721
2242.28, 0.259842
2243.25, 0.260135
2244.22, 0.260445
2245.19, 0.260583
2246.17, 0.260738
2247.14, 0.260980
2248.12, 0.261170
2249.09, 0.261359
2250.07, 0.261635
2251.04, 0.261877
2252.02, 0.262049
2253.0, 0.262273
2253.98, 0.262567
2254.96, 0.262773
2255.94, 0.262877
2256.92, 0.262998
2257.91, 0.263118
2258.89, 0.263360
2259.88, 0.263532
2260.86, 0.263636
2261.85, 0.263705
2262.83, 0.263826
2263.82, 0.264015
2264.81, 0.264188
2265.8, 0.264291
2266.79, 0.264326
2267.78, 0.264429
2268.78, 0.264567
2269.77, 0.264757
2270.76, 0.264860
2271.76, 0.264895
2272.75, 0.264929
2273.75, 0.265084
2274.75, 0.265240
2275.75, 0.265343
2276.75, 0.265447
2277.75, 0.265447
2278.75, 0.265498
2279.75, 0.265550
2280.75, 0.265481
2281.76, 0.265464
2282.76, 0.265343
2283.77, 0.265153
2284.77, 0.264964
2285.78, 0.264740
2286.79, 0.264429
2287.8, 0.264032
2288.81, 0.263705
2289.82, 0.263463
2290.83, 0.263291
2291.84, 0.263429
2292.86, 0.263670
2293.87, 0.264015
2294.89, 0.264567
2295.91, 0.265015
2296.92, 0.265188
2297.94, 0.265205
2298.96, 0.265222
2299.98, 0.265240
2301.0, 0.265102
2302.02, 0.264998
2303.04, 0.264929
2304.07, 0.264757
2305.09, 0.264446
2306.12, 0.264032
2307.15, 0.263567
2308.17, 0.263084
2309.2, 0.262532
2310.23, 0.262015
2311.26, 0.261635
2312.29, 0.261411
2313.32, 0.261359
2314.35, 0.261532
2315.39, 0.262084
2316.42, 0.263049
2317.46, 0.264032
2318.5, 0.264964
2319.53, 0.265740
2320.57, 0.266240
2321.61, 0.266585
2322.65, 0.266999
2323.69, 0.267413
2324.73, 0.267930
2325.78, 0.268499
2326.82, 0.269137
2327.86, 0.269862
2328.91, 0.270500
2329.96, 0.271051
2331.01, 0.271500
2332.05, 0.271810
2333.1, 0.272207
2334.15, 0.272655
2335.21, 0.273017
2336.26, 0.273259
2337.31, 0.273569
2338.36, 0.273949
2339.42, 0.274190
2340.48, 0.274466
2341.53, 0.274794
2342.59, 0.275018
2343.65, 0.275259
2344.71, 0.275553
2345.77, 0.275863
2346.83, 0.276087
2347.9, 0.276277
2348.96, 0.276484
2350.02, 0.276674
2351.09, 0.276881
2352.16, 0.277053
2353.23, 0.277260
2354.29, 0.277467
2355.36, 0.277674
2356.43, 0.277950
2357.51, 0.278122
2358.58, 0.278243
2359.65, 0.278381
2360.73, 0.278553
2361.8, 0.278622
2362.88, 0.278829
2363.96, 0.278967
2365.03, 0.279071
2366.11, 0.279140
2367.19, 0.279243
2368.27, 0.279260
2369.36, 0.279209
2370.44, 0.279243
2371.53, 0.279278
2372.61, 0.279226
2373.7, 0.279226
2374.78, 0.279174
2375.87, 0.278984
