Database of Origin, USGS Spectral Database
Sample Description, See USGS database for additional info
Date Added,2016-08-03 21:17:14.813105

Data ID,USGS_chr04          
Sample ID, chrysocolla_hs297.5175
Mineral Name, chrysocolla
Material Class,Phyllosilicate

Wavelength
1568.1, 0.216201
1568.58, 0.216428
1569.05, 0.216655
1569.53, 0.216769
1570.0, 0.217677
1570.48, 0.217847
1570.96, 0.217393
1571.43, 0.218131
1571.91, 0.218756
1572.39, 0.218813
1572.86, 0.218756
1573.34, 0.219153
1573.82, 0.219437
1574.3, 0.219607
1574.77, 0.220345
1575.25, 0.220232
1575.73, 0.220289
1576.21, 0.220459
1576.69, 0.220573
1577.17, 0.220686
1577.65, 0.221311
1578.13, 0.221538
1578.61, 0.222219
1579.09, 0.222276
1579.57, 0.222276
1580.05, 0.222389
1580.54, 0.222616
1581.02, 0.222673
1581.5, 0.223184
1581.98, 0.223525
1582.47, 0.223355
1582.95, 0.223241
1583.43, 0.223525
1583.92, 0.223866
1584.4, 0.224376
1584.88, 0.224604
1585.37, 0.224660
1585.85, 0.224774
1586.34, 0.225115
1586.82, 0.225001
1587.31, 0.225115
1587.8, 0.225398
1588.28, 0.225569
1588.77, 0.225966
1589.26, 0.226364
1589.74, 0.226023
1590.23, 0.225909
1590.72, 0.226704
1591.21, 0.227329
1591.7, 0.227215
1592.19, 0.227386
1592.67, 0.227386
1593.16, 0.227613
1593.65, 0.227556
1594.14, 0.228010
1594.63, 0.228351
1595.12, 0.228294
1595.61, 0.228408
1596.11, 0.228862
1596.6, 0.229202
1597.09, 0.229259
1597.58, 0.229202
1598.08, 0.229259
1598.57, 0.229713
1599.06, 0.229884
1599.55, 0.230281
1600.05, 0.230565
1600.54, 0.230565
1601.04, 0.231076
1601.53, 0.231190
1602.03, 0.231303
1602.52, 0.231587
1603.02, 0.231701
1603.51, 0.231587
1604.01, 0.231984
1604.5, 0.232439
1605.0, 0.232325
1605.5, 0.232666
1606.0, 0.232893
1606.49, 0.233063
1606.99, 0.233404
1607.49, 0.233120
1607.99, 0.233006
1608.49, 0.233290
1608.99, 0.234085
1609.49, 0.234653
1609.99, 0.234823
1610.49, 0.234483
1610.99, 0.234312
1611.49, 0.234369
1611.99, 0.234426
1612.49, 0.234653
1612.99, 0.234596
1613.49, 0.234483
1614.0, 0.235334
1614.5, 0.235788
1615.0, 0.235788
1615.51, 0.235902
1616.01, 0.236186
1616.51, 0.236129
1617.02, 0.236413
1617.52, 0.236697
1618.03, 0.236470
1618.53, 0.236583
1619.04, 0.237208
1619.54, 0.237548
1620.05, 0.237719
1620.55, 0.237719
1621.06, 0.237719
1621.57, 0.237832
1622.08, 0.238173
1622.58, 0.238343
1623.09, 0.238570
1623.6, 0.238797
1624.11, 0.239195
1624.62, 0.239138
1625.13, 0.238797
1625.64, 0.239195
1626.15, 0.239649
1626.66, 0.239536
1627.17, 0.239252
1627.68, 0.239025
1628.19, 0.239536
1628.7, 0.239990
1629.21, 0.240501
1629.72, 0.240898
1630.24, 0.240614
1630.75, 0.240558
1631.26, 0.240558
1631.78, 0.240898
1632.29, 0.241296
1632.8, 0.241466
1633.32, 0.241750
1633.83, 0.241807
1634.35, 0.241750
1634.86, 0.241807
1635.38, 0.241863
1635.9, 0.241863
1636.41, 0.242090
1636.93, 0.241920
1637.45, 0.242261
1637.96, 0.242601
1638.48, 0.242999
1639.0, 0.243283
1639.52, 0.243226
1640.04, 0.243169
1640.56, 0.243510
1641.08, 0.243567
1641.59, 0.243453
1642.11, 0.243680
1642.63, 0.243794
1643.16, 0.243907
1643.68, 0.244361
1644.2, 0.244589
1644.72, 0.244816
1645.24, 0.244759
1645.76, 0.244532
1646.29, 0.244645
1646.81, 0.244589
1647.33, 0.244361
1647.86, 0.244418
1648.38, 0.244929
1648.9, 0.245383
1649.43, 0.245327
1649.95, 0.245724
1650.48, 0.245894
1651.0, 0.245554
1651.53, 0.245667
1652.06, 0.246065
1652.58, 0.246292
1653.11, 0.246235
1653.64, 0.246121
1654.17, 0.246235
1654.69, 0.246405
1655.22, 0.246632
1655.75, 0.246803
1656.28, 0.247143
1656.81, 0.247143
1657.34, 0.246973
1657.87, 0.246973
1658.4, 0.247427
1658.93, 0.247654
1659.46, 0.247598
1659.99, 0.247654
1660.52, 0.247598
1661.05, 0.247938
1661.59, 0.248279
1662.12, 0.248393
1662.65, 0.248563
1663.19, 0.248165
1663.72, 0.248165
1664.26, 0.248506
1664.79, 0.248903
1665.32, 0.248960
1665.86, 0.248847
1666.39, 0.248960
1666.93, 0.249017
1667.47, 0.249131
1668.0, 0.249528
1668.54, 0.249301
1669.08, 0.249187
1669.61, 0.249301
1670.15, 0.249528
1670.69, 0.249869
1671.23, 0.250323
1671.77, 0.250266
1672.31, 0.250096
1672.85, 0.250096
1673.39, 0.250323
1673.93, 0.250607
1674.47, 0.250834
1675.01, 0.251175
1675.55, 0.251288
1676.09, 0.251061
1676.64, 0.251061
1677.18, 0.251288
1677.72, 0.251345
1678.26, 0.251629
1678.81, 0.252140
1679.35, 0.252026
1679.89, 0.251629
1680.44, 0.251572
1680.98, 0.251685
1681.53, 0.251799
1682.07, 0.252140
1682.62, 0.252480
1683.17, 0.252367
1683.71, 0.252253
1684.26, 0.252764
1684.81, 0.253048
1685.36, 0.252935
1685.9, 0.252878
1686.45, 0.252821
1687.0, 0.253048
1687.55, 0.253389
1688.1, 0.253275
1688.65, 0.253332
1689.2, 0.253446
1689.75, 0.253446
1690.3, 0.253502
1690.85, 0.253332
1691.41, 0.253105
1691.96, 0.253105
1692.51, 0.253446
1693.06, 0.253900
1693.61, 0.254013
1694.17, 0.254070
1694.72, 0.254297
1695.28, 0.254354
1695.83, 0.254240
1696.39, 0.254411
1696.94, 0.254581
1697.5, 0.254297
1698.05, 0.254354
1698.61, 0.254638
1699.17, 0.254467
1699.72, 0.254808
1700.28, 0.254808
1700.84, 0.254922
1701.4, 0.255092
1701.95, 0.255319
1702.51, 0.255149
1703.07, 0.254865
1703.63, 0.254638
1704.19, 0.254922
1704.75, 0.255262
1705.31, 0.255717
1705.88, 0.255717
1706.44, 0.255660
1707.0, 0.255376
1707.56, 0.255376
1708.12, 0.255603
1708.69, 0.255660
1709.25, 0.255603
1709.81, 0.255773
1710.38, 0.255830
1710.94, 0.255830
1711.51, 0.255830
1712.07, 0.256171
1712.64, 0.256284
1713.2, 0.256227
1713.77, 0.256171
1714.34, 0.255944
1714.9, 0.256057
1715.47, 0.256341
1716.04, 0.256227
1716.61, 0.256171
1717.18, 0.256284
1717.74, 0.256455
1718.31, 0.256511
1718.88, 0.256682
1719.45, 0.256682
1720.02, 0.256625
1720.59, 0.256511
1721.17, 0.256171
1721.74, 0.256057
1722.31, 0.256568
1722.88, 0.256795
1723.45, 0.256795
1724.03, 0.256625
1724.6, 0.256511
1725.18, 0.256568
1725.75, 0.257079
1726.33, 0.257193
1726.9, 0.257363
1727.48, 0.257477
1728.05, 0.257193
1728.63, 0.257079
1729.2, 0.257420
1729.78, 0.257590
1730.36, 0.257306
1730.94, 0.257363
1731.51, 0.257817
1732.09, 0.257533
1732.67, 0.257363
1733.25, 0.257420
1733.83, 0.257249
1734.41, 0.257363
1734.99, 0.257647
1735.57, 0.257533
1736.15, 0.257590
1736.73, 0.257874
1737.32, 0.258044
1737.9, 0.257533
1738.48, 0.257363
1739.07, 0.257533
1739.65, 0.257817
1740.23, 0.257874
1740.82, 0.257931
1741.4, 0.257988
1741.99, 0.258158
1742.57, 0.258044
1743.16, 0.258044
1743.74, 0.258271
1744.33, 0.258499
1744.92, 0.258612
1745.51, 0.258612
1746.09, 0.258442
1746.68, 0.258271
1747.27, 0.257988
1747.86, 0.257817
1748.45, 0.257817
1749.04, 0.258271
1749.63, 0.258669
1750.22, 0.258726
1750.81, 0.258555
1751.4, 0.258499
1751.99, 0.258726
1752.59, 0.258782
1753.18, 0.258612
1753.77, 0.258726
1754.37, 0.258612
1754.96, 0.258385
1755.56, 0.258271
1756.15, 0.258612
1756.74, 0.258839
1757.34, 0.259010
1757.94, 0.259010
1758.53, 0.259237
1759.13, 0.259237
1759.73, 0.259066
1760.32, 0.258953
1760.92, 0.258782
1761.52, 0.258726
1762.12, 0.258669
1762.72, 0.258726
1763.32, 0.258839
1763.92, 0.259066
1764.52, 0.259010
1765.12, 0.258612
1765.72, 0.258612
1766.32, 0.258612
1766.92, 0.258726
1767.53, 0.258953
1768.13, 0.258953
1768.73, 0.258839
1769.34, 0.258953
1769.94, 0.258782
1770.55, 0.258782
1771.15, 0.258839
1771.76, 0.258953
1772.36, 0.258669
1772.97, 0.258555
1773.57, 0.258782
1774.18, 0.259123
1774.79, 0.259066
1775.4, 0.259010
1776.0, 0.258839
1776.61, 0.258782
1777.22, 0.258726
1777.83, 0.258782
1778.44, 0.259123
1779.05, 0.258953
1779.66, 0.258499
1780.27, 0.258499
1780.88, 0.258726
1781.5, 0.258953
1782.11, 0.258726
1782.72, 0.258612
1783.33, 0.258839
1783.95, 0.258782
1784.56, 0.258442
1785.18, 0.258499
1785.79, 0.258612
1786.41, 0.258612
1787.02, 0.258442
1787.64, 0.258328
1788.26, 0.258215
1788.87, 0.258271
1789.49, 0.258385
1790.11, 0.258442
1790.73, 0.258328
1791.35, 0.258101
1791.96, 0.257988
1792.58, 0.258215
1793.21, 0.258215
1793.83, 0.258044
1794.45, 0.258044
1795.07, 0.258271
1795.69, 0.258442
1796.31, 0.258442
1796.93, 0.258215
1797.56, 0.258271
1798.18, 0.258385
1798.8, 0.258101
1799.43, 0.258328
1800.05, 0.258555
1800.68, 0.258328
1801.3, 0.258271
1801.93, 0.258271
1802.56, 0.258158
1803.18, 0.258158
1803.81, 0.258215
1804.44, 0.258215
1805.07, 0.258612
1805.7, 0.258555
1806.33, 0.258328
1806.95, 0.258328
1807.58, 0.258442
1808.22, 0.258328
1808.85, 0.258328
1809.48, 0.258442
1810.11, 0.258669
1810.74, 0.258499
1811.38, 0.258499
1812.01, 0.258499
1812.64, 0.258101
1813.28, 0.257874
1813.91, 0.258271
1814.55, 0.258555
1815.18, 0.258442
1815.82, 0.258271
1816.45, 0.258101
1817.09, 0.258101
1817.73, 0.258328
1818.36, 0.258158
1819.0, 0.258044
1819.64, 0.258044
1820.28, 0.258044
1820.92, 0.258044
1821.56, 0.258215
1822.2, 0.258328
1822.84, 0.258215
1823.48, 0.258101
1824.12, 0.258328
1824.76, 0.258271
1825.41, 0.258385
1826.05, 0.258385
1826.69, 0.258101
1827.34, 0.257931
1827.98, 0.257988
1828.63, 0.257988
1829.27, 0.258158
1829.92, 0.258158
1830.56, 0.257988
1831.21, 0.258215
1831.86, 0.258442
1832.5, 0.258271
1833.15, 0.258044
1833.8, 0.257988
1834.45, 0.257874
1835.1, 0.257704
1835.75, 0.257704
1836.4, 0.257704
1837.05, 0.257874
1837.7, 0.257533
1838.35, 0.257363
1839.01, 0.257533
1839.66, 0.257533
1840.31, 0.257363
1840.96, 0.257477
1841.62, 0.257306
1842.27, 0.257079
1842.93, 0.256852
1843.58, 0.256909
1844.24, 0.256625
1844.9, 0.256171
1845.55, 0.256171
1846.21, 0.256341
1846.87, 0.255830
1847.53, 0.255376
1848.18, 0.255489
1848.84, 0.255376
1849.5, 0.255149
1850.16, 0.255319
1850.82, 0.255092
1851.48, 0.254524
1852.14, 0.254184
1852.81, 0.254013
1853.47, 0.253900
1854.13, 0.253729
1854.8, 0.253275
1855.46, 0.252878
1856.12, 0.252651
1856.79, 0.252367
1857.45, 0.251856
1858.12, 0.251402
1858.79, 0.251288
1859.45, 0.250607
1860.12, 0.249869
1860.79, 0.249414
1861.46, 0.248903
1862.12, 0.248336
1862.79, 0.247598
1863.46, 0.247030
1864.13, 0.246519
1864.8, 0.245838
1865.48, 0.244816
1866.15, 0.243907
1866.82, 0.243169
1867.49, 0.242034
1868.16, 0.241068
1868.84, 0.240444
1869.51, 0.239138
1870.19, 0.237492
1870.86, 0.236072
1871.54, 0.234880
1872.21, 0.233461
1872.89, 0.231757
1873.56, 0.229997
1874.24, 0.228180
1874.92, 0.226023
1875.6, 0.223922
1876.28, 0.221765
1876.96, 0.219721
1877.64, 0.217961
1878.32, 0.215633
1879.0, 0.212851
1879.68, 0.210353
1880.36, 0.208082
1881.04, 0.205697
1881.73, 0.203256
1882.41, 0.201155
1883.09, 0.198657
1883.78, 0.196273
1884.46, 0.193945
1885.15, 0.191447
1885.83, 0.188949
1886.52, 0.186848
1887.21, 0.184690
1887.89, 0.182590
1888.58, 0.181057
1889.27, 0.179637
1889.96, 0.178445
1890.65, 0.177537
1891.34, 0.176174
1892.03, 0.174925
1892.72, 0.173903
1893.41, 0.172541
1894.1, 0.171405
1894.79, 0.170553
1895.49, 0.169304
1896.18, 0.168112
1896.87, 0.167090
1897.57, 0.165955
1898.26, 0.164706
1898.96, 0.163684
1899.65, 0.162775
1900.35, 0.162207
1901.05, 0.161640
1901.74, 0.160731
1902.44, 0.159880
1903.14, 0.159255
1903.84, 0.159028
1904.54, 0.158858
1905.24, 0.158403
1905.94, 0.158233
1906.64, 0.158176
1907.34, 0.158403
1908.04, 0.158744
1908.75, 0.159142
1909.45, 0.159369
1910.15, 0.159766
1910.86, 0.160334
1911.56, 0.161185
1912.27, 0.161867
1912.97, 0.162264
1913.68, 0.163002
1914.39, 0.164024
1915.09, 0.164706
1915.8, 0.165500
1916.51, 0.166466
1917.22, 0.167374
1917.93, 0.168509
1918.64, 0.169531
1919.35, 0.170383
1920.06, 0.171121
1920.77, 0.171746
1921.48, 0.172768
1922.19, 0.173960
1922.91, 0.174868
1923.62, 0.175323
1924.33, 0.176061
1925.05, 0.177083
1925.76, 0.178048
1926.48, 0.178899
1927.19, 0.179751
1927.91, 0.180546
1928.63, 0.181398
1929.35, 0.182249
1930.07, 0.183044
1930.78, 0.183555
1931.5, 0.184123
1932.22, 0.184690
1932.94, 0.185372
1933.66, 0.186223
1934.39, 0.187018
1935.11, 0.187529
1935.83, 0.188097
1936.55, 0.188835
1937.28, 0.189630
1938.0, 0.190368
1938.73, 0.190879
1939.45, 0.191163
1940.18, 0.191674
1940.9, 0.192185
1941.63, 0.192696
1942.36, 0.193264
1943.09, 0.193888
1943.81, 0.194456
1944.54, 0.194967
1945.27, 0.195421
1946.0, 0.195989
1946.73, 0.196443
1947.47, 0.196840
1948.2, 0.197238
1948.93, 0.197522
1949.66, 0.197806
1950.4, 0.198317
1951.13, 0.198884
1951.86, 0.199282
1952.6, 0.199566
1953.34, 0.199963
1954.07, 0.200417
1954.81, 0.200701
1955.55, 0.200871
1956.29, 0.201326
1957.02, 0.201496
1957.76, 0.201893
1958.5, 0.202461
1959.24, 0.203029
1959.98, 0.203086
1960.72, 0.203370
1961.47, 0.203767
1962.21, 0.204221
1962.95, 0.204846
1963.7, 0.205186
1964.44, 0.205243
1965.18, 0.205641
1965.93, 0.206208
1966.67, 0.206549
1967.42, 0.206606
1968.17, 0.207003
1968.92, 0.207571
1969.66, 0.207968
1970.41, 0.208196
1971.16, 0.208536
1971.91, 0.209047
1972.66, 0.209558
1973.41, 0.209956
1974.16, 0.210410
1974.92, 0.210580
1975.67, 0.210580
1976.42, 0.210921
1977.18, 0.211659
1977.93, 0.211999
1978.69, 0.212283
1979.44, 0.212908
1980.2, 0.213362
1980.95, 0.213703
1981.71, 0.214100
1982.47, 0.214441
1983.23, 0.214725
1983.99, 0.215122
1984.74, 0.215803
1985.51, 0.216314
1986.27, 0.216598
1987.03, 0.216825
1987.79, 0.217393
1988.55, 0.217961
1989.32, 0.218358
1990.08, 0.218642
1990.84, 0.219210
1991.61, 0.219721
1992.37, 0.220005
1993.14, 0.220402
1993.9, 0.221084
1994.67, 0.221424
1995.44, 0.221765
1996.21, 0.222162
1996.98, 0.222560
1997.75, 0.222844
1998.52, 0.223411
1999.29, 0.224093
2000.06, 0.224604
2000.83, 0.224887
2001.6, 0.224944
2002.38, 0.225171
2003.15, 0.225682
2003.93, 0.226307
2004.7, 0.226818
2005.48, 0.227045
2006.25, 0.227556
2007.03, 0.228067
2007.81, 0.228464
2008.58, 0.228691
2009.36, 0.228919
2010.14, 0.229202
2010.92, 0.229543
2011.7, 0.229770
2012.48, 0.230168
2013.26, 0.230565
2014.05, 0.231190
2014.83, 0.231701
2015.61, 0.231984
2016.4, 0.232098
2017.18, 0.232552
2017.97, 0.232893
2018.75, 0.233404
2019.54, 0.233801
2020.32, 0.233858
2021.11, 0.234085
2021.9, 0.234369
2022.69, 0.234710
2023.48, 0.234994
2024.27, 0.235050
2025.06, 0.235334
2025.85, 0.235448
2026.64, 0.235788
2027.44, 0.236299
2028.23, 0.236470
2029.02, 0.236640
2029.82, 0.236867
2030.61, 0.236981
2031.41, 0.237151
2032.2, 0.237435
2033.0, 0.238003
2033.8, 0.238343
2034.6, 0.238457
2035.4, 0.238400
2036.2, 0.238627
2037.0, 0.238968
2037.8, 0.239365
2038.6, 0.239479
2039.4, 0.239308
2040.2, 0.239536
2041.01, 0.239990
2041.81, 0.240103
2042.61, 0.240047
2043.42, 0.239933
2044.22, 0.240217
2045.03, 0.240387
2045.84, 0.240444
2046.65, 0.240785
2047.46, 0.241068
2048.26, 0.241012
2049.07, 0.241068
2049.88, 0.241182
2050.69, 0.241296
2051.51, 0.241466
2052.32, 0.241579
2053.13, 0.241579
2053.94, 0.241693
2054.76, 0.241863
2055.57, 0.241807
2056.39, 0.241750
2057.2, 0.241579
2058.02, 0.241579
2058.84, 0.241750
2059.66, 0.241863
2060.48, 0.241977
2061.29, 0.241693
2062.11, 0.241693
2062.94, 0.241920
2063.76, 0.242090
2064.58, 0.242090
2065.4, 0.242318
2066.22, 0.242431
2067.05, 0.242374
2067.87, 0.242147
2068.7, 0.241920
2069.52, 0.241977
2070.35, 0.242147
2071.18, 0.242090
2072.0, 0.242034
2072.83, 0.242034
2073.66, 0.241977
2074.49, 0.241920
2075.32, 0.242147
2076.15, 0.241977
2076.98, 0.241863
2077.82, 0.241977
2078.65, 0.242147
2079.48, 0.242090
2080.32, 0.241863
2081.15, 0.241920
2081.99, 0.242034
2082.83, 0.241863
2083.66, 0.241750
2084.5, 0.241920
2085.34, 0.241863
2086.18, 0.241693
2087.02, 0.241693
2087.86, 0.241579
2088.7, 0.241579
2089.54, 0.241523
2090.39, 0.241409
2091.23, 0.241296
2092.07, 0.241636
2092.92, 0.241466
2093.76, 0.240955
2094.61, 0.240898
2095.45, 0.240955
2096.3, 0.240898
2097.15, 0.240671
2098.0, 0.240330
2098.85, 0.240103
2099.7, 0.240047
2100.55, 0.240103
2101.4, 0.239933
2102.25, 0.239649
2103.1, 0.239763
2103.96, 0.239933
2104.81, 0.239933
2105.67, 0.239819
2106.52, 0.239706
2107.38, 0.239706
2108.24, 0.239763
2109.09, 0.239819
2109.95, 0.239706
2110.81, 0.239706
2111.67, 0.239819
2112.53, 0.239876
2113.39, 0.239876
2114.25, 0.239990
2115.12, 0.240047
2115.98, 0.240217
2116.84, 0.240217
2117.71, 0.240160
2118.58, 0.239933
2119.44, 0.239763
2120.31, 0.239592
2121.18, 0.239592
2122.04, 0.239706
2122.91, 0.239819
2123.78, 0.239876
2124.65, 0.240103
2125.52, 0.240274
2126.4, 0.240217
2127.27, 0.240047
2128.14, 0.239876
2129.02, 0.239819
2129.89, 0.239649
2130.77, 0.239252
2131.64, 0.239138
2132.52, 0.239252
2133.4, 0.239195
2134.27, 0.239081
2135.15, 0.239252
2136.03, 0.239081
2136.91, 0.238684
2137.79, 0.238457
2138.68, 0.238286
2139.56, 0.238173
2140.44, 0.238116
2141.33, 0.237719
2142.21, 0.237605
2143.1, 0.237378
2143.99, 0.237265
2144.87, 0.237151
2145.76, 0.236867
2146.65, 0.236413
2147.54, 0.235959
2148.43, 0.235732
2149.32, 0.235391
2150.21, 0.235050
2151.1, 0.234880
2151.99, 0.234596
2152.89, 0.234312
2153.78, 0.233858
2154.68, 0.233404
2155.57, 0.233120
2156.47, 0.232893
2157.37, 0.232722
2158.27, 0.232609
2159.16, 0.232041
2160.06, 0.231417
2160.96, 0.230792
2161.86, 0.230224
2162.77, 0.229827
2163.67, 0.229373
2164.57, 0.228691
2165.48, 0.228237
2166.38, 0.227613
2167.29, 0.227045
2168.2, 0.226477
2169.1, 0.225682
2170.01, 0.224887
2170.92, 0.224263
2171.83, 0.223411
2172.74, 0.222560
2173.65, 0.221765
2174.56, 0.220686
2175.47, 0.219778
2176.39, 0.218926
2177.3, 0.217734
2178.22, 0.216541
2179.13, 0.215520
2180.05, 0.214441
2180.96, 0.213135
2181.88, 0.212227
2182.8, 0.211375
2183.72, 0.210239
2184.64, 0.208990
2185.56, 0.208139
2186.48, 0.207230
2187.41, 0.206322
2188.33, 0.205584
2189.25, 0.204789
2190.18, 0.204164
2191.1, 0.203824
2192.03, 0.203313
2192.96, 0.202859
2193.89, 0.202461
2194.82, 0.202404
2195.74, 0.202007
2196.68, 0.201666
2197.61, 0.201439
2198.54, 0.201212
2199.47, 0.200928
2200.4, 0.200871
2201.34, 0.200758
2202.28, 0.200417
2203.21, 0.200133
2204.15, 0.199906
2205.08, 0.199679
2206.02, 0.199452
2206.96, 0.199111
2207.9, 0.198828
2208.84, 0.198544
2209.78, 0.198146
2210.73, 0.197749
2211.67, 0.197408
2212.61, 0.196840
2213.56, 0.196159
2214.5, 0.195535
2215.45, 0.194853
2216.4, 0.193775
2217.35, 0.193036
2218.3, 0.192242
2219.24, 0.191504
2220.2, 0.190765
2221.15, 0.190027
2222.1, 0.189232
2223.05, 0.188551
2224.0, 0.187813
2224.96, 0.187189
2225.91, 0.186167
2226.87, 0.185145
2227.83, 0.184123
2228.79, 0.183044
2229.74, 0.181795
2230.7, 0.180489
2231.66, 0.179070
2232.63, 0.177480
2233.59, 0.175379
2234.55, 0.173506
2235.51, 0.171689
2236.48, 0.169759
2237.44, 0.167544
2238.41, 0.165387
2239.38, 0.163229
2240.34, 0.161072
2241.31, 0.158801
2242.28, 0.156757
2243.25, 0.154940
2244.22, 0.153237
2245.19, 0.151363
2246.17, 0.149830
2247.14, 0.148638
2248.12, 0.147559
2249.09, 0.146594
2250.07, 0.145970
2251.04, 0.145515
2252.02, 0.145345
2253.0, 0.145402
2253.98, 0.145743
2254.96, 0.145856
2255.94, 0.146197
2256.92, 0.146708
2257.91, 0.147105
2258.89, 0.147673
2259.88, 0.148525
2260.86, 0.149376
2261.85, 0.149944
2262.83, 0.150171
2263.82, 0.150739
2264.81, 0.151363
2265.8, 0.151874
2266.79, 0.152272
2267.78, 0.152726
2268.78, 0.152953
2269.77, 0.153294
2270.76, 0.153918
2271.76, 0.154656
2272.75, 0.155224
2273.75, 0.156019
2274.75, 0.156643
2275.75, 0.157552
2276.75, 0.158744
2277.75, 0.159880
2278.75, 0.160845
2279.75, 0.161810
2280.75, 0.162945
2281.76, 0.164478
2282.76, 0.166068
2283.77, 0.167488
2284.77, 0.168964
2285.78, 0.170610
2286.79, 0.171973
2287.8, 0.173562
2288.81, 0.175039
2289.82, 0.176288
2290.83, 0.177366
