Database of Origin,USGS Spectral Database
Sample Description,See USGS database for additional info
Date Added,2017-02-22 02:49:17.663727

Data ID,USGS_sti04          
Sample ID,stilbite_hs482.21291
Mineral Name,stilbite

Wavelength
1574.77, 0.274936
1575.25, 0.274304
1575.73, 0.274665
1576.21, 0.275342
1576.69, 0.275613
1577.17, 0.274890
1577.65, 0.274981
1578.13, 0.275252
1578.61, 0.275297
1579.09, 0.275071
1579.57, 0.275161
1580.05, 0.275252
1580.54, 0.275613
1581.02, 0.275071
1581.5, 0.274710
1581.98, 0.274259
1582.47, 0.274710
1582.95, 0.275161
1583.43, 0.275522
1583.92, 0.275522
1584.4, 0.275567
1584.88, 0.275387
1585.37, 0.275252
1585.85, 0.274665
1586.34, 0.274710
1586.82, 0.275387
1587.31, 0.275477
1587.8, 0.275116
1588.28, 0.275748
1588.77, 0.276154
1589.26, 0.276154
1589.74, 0.275477
1590.23, 0.275748
1590.72, 0.275928
1591.21, 0.276290
1591.7, 0.276109
1592.19, 0.275928
1592.67, 0.275748
1593.16, 0.276154
1593.65, 0.276244
1594.14, 0.276335
1594.63, 0.276154
1595.12, 0.276335
1595.61, 0.276154
1596.11, 0.276109
1596.6, 0.275883
1597.09, 0.276109
1597.58, 0.276335
1598.08, 0.276741
1598.57, 0.276470
1599.06, 0.276515
1599.55, 0.277012
1600.05, 0.277373
1600.54, 0.277057
1601.04, 0.277102
1601.53, 0.276831
1602.03, 0.276876
1602.52, 0.276786
1603.02, 0.277102
1603.51, 0.277282
1604.01, 0.277598
1604.5, 0.277463
1605.0, 0.277508
1605.5, 0.277553
1606.0, 0.278050
1606.49, 0.277959
1606.99, 0.277824
1607.49, 0.277689
1607.99, 0.277869
1608.49, 0.277689
1608.99, 0.277689
1609.49, 0.277869
1609.99, 0.278275
1610.49, 0.278140
1610.99, 0.278230
1611.49, 0.278501
1611.99, 0.278772
1612.49, 0.278546
1612.99, 0.278591
1613.49, 0.278636
1614.0, 0.279088
1614.5, 0.279043
1615.0, 0.279268
1615.51, 0.279268
1616.01, 0.279449
1616.51, 0.279223
1617.02, 0.279043
1617.52, 0.278817
1618.03, 0.279223
1618.53, 0.279223
1619.04, 0.279268
1619.54, 0.279043
1620.05, 0.279358
1620.55, 0.279674
1621.06, 0.279990
1621.57, 0.279765
1622.08, 0.279945
1622.58, 0.279674
1623.09, 0.279629
1623.6, 0.279765
1624.11, 0.279945
1624.62, 0.279900
1625.13, 0.280081
1625.64, 0.280081
1626.15, 0.280442
1626.66, 0.280848
1627.17, 0.280938
1627.68, 0.280667
1628.19, 0.280532
1628.7, 0.280081
1629.21, 0.280081
1629.72, 0.280261
1630.24, 0.281119
1630.75, 0.281254
1631.26, 0.281119
1631.78, 0.280757
1632.29, 0.280983
1632.8, 0.280757
1633.32, 0.280667
1633.83, 0.280667
1634.35, 0.280757
1634.86, 0.280893
1635.38, 0.281389
1635.9, 0.281119
1636.41, 0.281254
1636.93, 0.281164
1637.45, 0.281209
1637.96, 0.281119
1638.48, 0.281299
1639.0, 0.281164
1639.52, 0.281525
1640.04, 0.281570
1640.56, 0.281434
1641.08, 0.281299
1641.59, 0.281389
1642.11, 0.281209
1642.63, 0.281705
1643.16, 0.281931
1643.68, 0.281886
1644.2, 0.281480
1644.72, 0.281480
1645.24, 0.281480
1645.76, 0.281931
1646.29, 0.282021
1646.81, 0.282157
1647.33, 0.281976
1647.86, 0.281705
1648.38, 0.281705
1648.9, 0.281931
1649.43, 0.281841
1649.95, 0.282157
1650.48, 0.282427
1651.0, 0.282382
1651.53, 0.281976
1652.06, 0.282111
1652.58, 0.282111
1653.11, 0.282337
1653.64, 0.282382
1654.17, 0.282472
1654.69, 0.282382
1655.22, 0.282788
1655.75, 0.282608
1656.28, 0.282653
1656.81, 0.282879
1657.34, 0.283059
1657.87, 0.282834
1658.4, 0.283014
1658.93, 0.282788
1659.46, 0.282743
1659.99, 0.282879
1660.52, 0.283149
1661.05, 0.282788
1661.59, 0.283059
1662.12, 0.283420
1662.65, 0.283285
1663.19, 0.283014
1663.72, 0.283149
1664.26, 0.282969
1664.79, 0.283195
1665.32, 0.283104
1665.86, 0.283104
1666.39, 0.283285
1666.93, 0.283556
1667.47, 0.283375
1668.0, 0.283510
1668.54, 0.283510
1669.08, 0.283736
1669.61, 0.283962
1670.15, 0.284052
1670.69, 0.284052
1671.23, 0.284232
1671.77, 0.284097
1672.31, 0.284187
1672.85, 0.284368
1673.39, 0.284368
1673.93, 0.283962
1674.47, 0.284323
1675.01, 0.284503
1675.55, 0.284368
1676.09, 0.284142
1676.64, 0.284684
1677.18, 0.284955
1677.72, 0.285000
1678.26, 0.284594
1678.81, 0.284548
1679.35, 0.284503
1679.89, 0.284684
1680.44, 0.284819
1680.98, 0.285000
1681.53, 0.284864
1682.07, 0.285180
1682.62, 0.285045
1683.17, 0.285000
1683.71, 0.284909
1684.26, 0.284955
1684.81, 0.284729
1685.36, 0.285000
1685.9, 0.285180
1686.45, 0.285090
1687.0, 0.284819
1687.55, 0.285225
1688.1, 0.285271
1688.65, 0.285225
1689.2, 0.285090
1689.75, 0.285316
1690.3, 0.285541
1690.85, 0.285316
1691.41, 0.284729
1691.96, 0.284594
1692.51, 0.284503
1693.06, 0.284503
1693.61, 0.284639
1694.17, 0.285135
1694.72, 0.285045
1695.28, 0.284864
1695.83, 0.284684
1696.39, 0.284864
1696.94, 0.284684
1697.5, 0.284413
1698.05, 0.284142
1698.61, 0.284097
1699.17, 0.284007
1699.72, 0.284007
1700.28, 0.283826
1700.84, 0.283872
1701.4, 0.283917
1701.95, 0.283736
1702.51, 0.283330
1703.07, 0.283601
1703.63, 0.283601
1704.19, 0.283420
1704.75, 0.283149
1705.31, 0.283330
1705.88, 0.283240
1706.44, 0.283014
1707.0, 0.282788
1707.56, 0.282834
1708.12, 0.282788
1708.69, 0.282924
1709.25, 0.282879
1709.81, 0.282382
1710.38, 0.282021
1710.94, 0.281976
1711.51, 0.281931
1712.07, 0.282066
1712.64, 0.281660
1713.2, 0.281525
1713.77, 0.281525
1714.34, 0.281525
1714.9, 0.281209
1715.47, 0.281028
1716.04, 0.280803
1716.61, 0.280487
1717.18, 0.280306
1717.74, 0.280396
1718.31, 0.280081
1718.88, 0.279900
1719.45, 0.279629
1720.02, 0.279449
1720.59, 0.279358
1721.17, 0.279358
1721.74, 0.278907
1722.31, 0.278952
1722.88, 0.278727
1723.45, 0.278320
1724.03, 0.278140
1724.6, 0.278095
1725.18, 0.277689
1725.75, 0.277643
1726.33, 0.277147
1726.9, 0.277012
1727.48, 0.277057
1728.05, 0.276966
1728.63, 0.276605
1729.2, 0.276651
1729.78, 0.276425
1730.36, 0.276019
1730.94, 0.275613
1731.51, 0.275613
1732.09, 0.275567
1732.67, 0.275613
1733.25, 0.275477
1733.83, 0.275432
1734.41, 0.274936
1734.99, 0.274620
1735.57, 0.274349
1736.15, 0.274529
1736.73, 0.274304
1737.32, 0.274078
1737.9, 0.273988
1738.48, 0.274168
1739.07, 0.273943
1739.65, 0.273807
1740.23, 0.273717
1740.82, 0.273582
1741.4, 0.273040
1741.99, 0.272860
1742.57, 0.272724
1743.16, 0.272814
1743.74, 0.272724
1744.33, 0.272634
1744.92, 0.272408
1745.51, 0.272499
1746.09, 0.272228
1746.68, 0.272183
1747.27, 0.272047
1747.86, 0.271957
1748.45, 0.271912
1749.04, 0.272092
1749.63, 0.271957
1750.22, 0.271912
1750.81, 0.271641
1751.4, 0.271461
1751.99, 0.271551
1752.59, 0.271822
1753.18, 0.271641
1753.77, 0.271506
1754.37, 0.271325
1754.96, 0.271506
1755.56, 0.271280
1756.15, 0.271370
1756.74, 0.271551
1757.34, 0.271596
1757.94, 0.271415
1758.53, 0.271506
1759.13, 0.271506
1759.73, 0.271280
1760.32, 0.271145
1760.92, 0.271235
1761.52, 0.271145
1762.12, 0.271190
1762.72, 0.271145
1763.32, 0.271235
1763.92, 0.271325
1764.52, 0.271325
1765.12, 0.271100
1765.72, 0.271100
1766.32, 0.271100
1766.92, 0.271145
1767.53, 0.271054
1768.13, 0.271009
1768.73, 0.270829
1769.34, 0.270919
1769.94, 0.270693
1770.55, 0.270648
1771.15, 0.270874
1771.76, 0.270874
1772.36, 0.270558
1772.97, 0.270693
1773.57, 0.270603
1774.18, 0.270468
1774.79, 0.270377
1775.4, 0.270468
1776.0, 0.270332
1776.61, 0.270377
1777.22, 0.270513
1777.83, 0.270603
1778.44, 0.270377
1779.05, 0.270423
1779.66, 0.270332
1780.27, 0.270197
1780.88, 0.269926
1781.5, 0.269971
1782.11, 0.270107
1782.72, 0.270107
1783.33, 0.269791
1783.95, 0.269836
1784.56, 0.269926
1785.18, 0.270016
1785.79, 0.270016
1786.41, 0.269836
1787.02, 0.269430
1787.64, 0.269475
1788.26, 0.269430
1788.87, 0.269475
1789.49, 0.269430
1790.11, 0.269294
1790.73, 0.269159
1791.35, 0.269294
1791.96, 0.269204
1792.58, 0.269159
1793.21, 0.269114
1793.83, 0.269249
1794.45, 0.268888
1795.07, 0.268708
1795.69, 0.268662
1796.31, 0.268753
1796.93, 0.268572
1797.56, 0.268482
1798.18, 0.268392
1798.8, 0.268572
1799.43, 0.268392
1800.05, 0.268211
1800.68, 0.268166
1801.3, 0.268256
1801.93, 0.267895
1802.56, 0.267624
1803.18, 0.267444
1803.81, 0.267624
1804.44, 0.267670
1805.07, 0.267624
1805.7, 0.267489
1806.33, 0.267444
1806.95, 0.267399
1807.58, 0.267444
1808.22, 0.267399
1808.85, 0.267354
1809.48, 0.267083
1810.11, 0.267083
1810.74, 0.267038
1811.38, 0.267083
1812.01, 0.266857
1812.64, 0.266722
1813.28, 0.266767
1813.91, 0.266812
1814.55, 0.266586
1815.18, 0.266586
1815.82, 0.266406
1816.45, 0.266451
1817.09, 0.266496
1817.73, 0.266406
1818.36, 0.266135
1819.0, 0.266135
1819.64, 0.266225
1820.28, 0.266090
1820.92, 0.265864
1821.56, 0.265910
1822.2, 0.265684
1822.84, 0.265594
1823.48, 0.265594
1824.12, 0.265819
1824.76, 0.265819
1825.41, 0.265639
1826.05, 0.265187
1826.69, 0.264962
1827.34, 0.264917
1827.98, 0.265007
1828.63, 0.264872
1829.27, 0.264917
1829.92, 0.264917
1830.56, 0.264781
1831.21, 0.264285
1831.86, 0.264375
1832.5, 0.264375
1833.15, 0.264195
1833.8, 0.264195
1834.45, 0.264240
1835.1, 0.263879
1835.75, 0.263427
1836.4, 0.262931
1837.05, 0.263066
1837.7, 0.262750
1838.35, 0.262525
1839.01, 0.262389
1839.66, 0.261983
1840.31, 0.261577
1840.96, 0.261848
1841.62, 0.261577
1842.27, 0.261261
1842.93, 0.261035
1843.58, 0.260855
1844.24, 0.260539
1844.9, 0.260358
1845.55, 0.260133
1846.21, 0.259862
1846.87, 0.258959
1847.53, 0.258463
1848.18, 0.258282
1848.84, 0.258102
1849.5, 0.257786
1850.16, 0.257380
1850.82, 0.256838
1851.48, 0.256387
1852.14, 0.256026
1852.81, 0.255710
1853.47, 0.254898
1854.13, 0.254130
1854.8, 0.253589
1855.46, 0.253228
1856.12, 0.252641
1856.79, 0.252009
1857.45, 0.251513
1858.12, 0.251107
1858.79, 0.250430
1859.45, 0.249437
1860.12, 0.248354
1860.79, 0.247586
1861.46, 0.246819
1862.12, 0.246097
1862.79, 0.245240
1863.46, 0.244427
1864.13, 0.243389
1864.8, 0.242396
1865.48, 0.241449
1866.15, 0.240681
1866.82, 0.239643
1867.49, 0.238244
1868.16, 0.236981
1868.84, 0.235988
1869.51, 0.234724
1870.19, 0.233506
1870.86, 0.231881
1871.54, 0.230482
1872.21, 0.229128
1872.89, 0.227458
1873.56, 0.225698
1874.24, 0.224254
1874.92, 0.222584
1875.6, 0.221140
1876.28, 0.219380
1876.96, 0.217349
1877.64, 0.215408
1878.32, 0.213603
1879.0, 0.211392
1879.68, 0.209406
1880.36, 0.207195
1881.04, 0.204893
1881.73, 0.202320
1882.41, 0.199838
1883.09, 0.197356
1883.78, 0.194603
1884.46, 0.191670
1885.15, 0.188962
1885.83, 0.186073
1886.52, 0.183230
1887.21, 0.180161
1887.89, 0.177183
1888.58, 0.173798
1889.27, 0.170458
1889.96, 0.166983
1890.65, 0.163553
1891.34, 0.159988
1892.03, 0.156197
1892.72, 0.152406
1893.41, 0.148841
1894.1, 0.144914
1894.79, 0.141123
1895.49, 0.137378
1896.18, 0.133541
1896.87, 0.129750
1897.57, 0.126140
1898.26, 0.122304
1898.96, 0.118784
1899.65, 0.115264
1900.35, 0.111969
1901.05, 0.108674
1901.74, 0.105696
1902.44, 0.102717
1903.14, 0.0999640
1903.84, 0.0973470
1904.54, 0.0952260
1905.24, 0.0930590
1905.94, 0.0910740
1906.64, 0.0892230
1907.34, 0.0875980
1908.04, 0.0859290
1908.75, 0.0848460
1909.45, 0.0836720
1910.15, 0.0824990
1910.86, 0.0814160
1911.56, 0.0806480
1912.27, 0.0799710
1912.97, 0.0793400
1913.68, 0.0786630
1914.39, 0.0785270
1915.09, 0.0783920
1915.8, 0.0781660
1916.51, 0.0780760
1917.22, 0.0782560
1917.93, 0.0782560
1918.64, 0.0783920
1919.35, 0.0787080
1920.06, 0.0791590
1920.77, 0.0795200
1921.48, 0.0800620
1922.19, 0.0805580
1922.91, 0.0813250
1923.62, 0.0820470
1924.33, 0.0828150
1925.05, 0.0834920
1925.76, 0.0844390
1926.48, 0.0853420
1927.19, 0.0863350
1927.91, 0.0872830
1928.63, 0.0880950
1929.35, 0.0890880
1930.07, 0.0902610
1930.78, 0.0912540
1931.5, 0.0924730
1932.22, 0.0934650
1932.94, 0.0945940
1933.66, 0.0955870
1934.39, 0.0967150
1935.11, 0.0977080
1935.83, 0.0987010
1936.55, 0.0996930
1937.28, 0.100912
1938.0, 0.101905
1938.73, 0.103033
1939.45, 0.104071
1940.18, 0.105109
1940.9, 0.106057
1941.63, 0.106914
1942.36, 0.107907
1943.09, 0.108855
1943.81, 0.109622
1944.54, 0.110615
1945.27, 0.111473
1946.0, 0.112601
1946.73, 0.113368
1947.47, 0.114135
1948.2, 0.114993
1948.93, 0.115895
1949.66, 0.116617
1950.4, 0.117385
1951.13, 0.118017
1951.86, 0.118829
1952.6, 0.119506
1953.34, 0.120363
1954.07, 0.121131
1954.81, 0.121762
1955.55, 0.122394
1956.29, 0.123161
1957.02, 0.123748
1957.76, 0.124335
1958.5, 0.124922
1959.24, 0.125779
1959.98, 0.126366
1960.72, 0.126907
1961.47, 0.127313
1962.21, 0.128036
1962.95, 0.128667
1963.7, 0.129344
1964.44, 0.129931
1965.18, 0.130608
1965.93, 0.131059
1966.67, 0.131691
1967.42, 0.132278
1968.17, 0.132864
1968.92, 0.133316
1969.66, 0.133812
1970.41, 0.134128
1971.16, 0.134805
1971.91, 0.135572
1972.66, 0.136340
1973.41, 0.136881
1974.16, 0.137332
1974.92, 0.137784
1975.67, 0.138325
1976.42, 0.138867
1977.18, 0.139408
1977.93, 0.139950
1978.69, 0.140717
1979.44, 0.141394
1980.2, 0.142116
1980.95, 0.142748
1981.71, 0.143335
1982.47, 0.143921
1983.23, 0.144463
1983.99, 0.144960
1984.74, 0.145862
1985.51, 0.146629
1986.27, 0.147081
1987.03, 0.147532
1987.79, 0.148344
1988.55, 0.149111
1989.32, 0.149743
1990.08, 0.150375
1990.84, 0.151233
1991.61, 0.151910
1992.37, 0.152541
1993.14, 0.153264
1993.9, 0.154211
1994.67, 0.154888
1995.44, 0.155610
1996.21, 0.156242
1996.98, 0.157145
1997.75, 0.157957
1998.52, 0.158724
1999.29, 0.159401
2000.06, 0.160394
2000.83, 0.161252
2001.6, 0.162064
2002.38, 0.162741
2003.15, 0.163463
2003.93, 0.164321
2004.7, 0.165359
2005.48, 0.166081
2006.25, 0.166938
2007.03, 0.167750
2007.81, 0.168473
2008.58, 0.169285
2009.36, 0.170233
2010.14, 0.171180
2010.92, 0.171993
2011.7, 0.172625
2012.48, 0.173437
2013.26, 0.174249
2014.05, 0.175242
2014.83, 0.176054
2015.61, 0.176777
2016.4, 0.177454
2017.18, 0.178401
2017.97, 0.179214
2018.75, 0.180026
2019.54, 0.180838
2020.32, 0.181606
2021.11, 0.182237
2021.9, 0.183005
2022.69, 0.183772
2023.48, 0.184584
2024.27, 0.185261
2025.06, 0.186073
2025.85, 0.186660
2026.64, 0.187518
2027.44, 0.188240
2028.23, 0.188917
2029.02, 0.189549
2029.82, 0.190271
2030.61, 0.190857
2031.41, 0.191534
2032.2, 0.192211
2033.0, 0.192978
2033.8, 0.193565
2034.6, 0.194197
2035.4, 0.194603
2036.2, 0.195100
2037.0, 0.195641
2037.8, 0.196273
2038.6, 0.196950
2039.4, 0.197627
2040.2, 0.198078
2041.01, 0.198620
2041.81, 0.198891
2042.61, 0.199342
2043.42, 0.199748
2044.22, 0.200290
2045.03, 0.200831
2045.84, 0.201328
2046.65, 0.201689
2047.46, 0.202185
2048.26, 0.202546
2049.07, 0.202952
2049.88, 0.203223
2050.69, 0.203720
2051.51, 0.204171
2052.32, 0.204487
2053.13, 0.204577
2053.94, 0.204848
2054.76, 0.205073
2055.57, 0.205570
2056.39, 0.206111
2057.2, 0.206518
2058.02, 0.206608
2058.84, 0.206969
2059.66, 0.207104
2060.48, 0.207195
2061.29, 0.207420
2062.11, 0.207872
2062.94, 0.208142
2063.76, 0.208413
2064.58, 0.208639
2065.4, 0.208819
2066.22, 0.208864
2067.05, 0.209090
2067.87, 0.209316
2068.7, 0.209632
2069.52, 0.209812
2070.35, 0.209857
2071.18, 0.209722
2072.0, 0.209902
2072.83, 0.210128
2073.66, 0.210534
2074.49, 0.210850
2075.32, 0.211031
2076.15, 0.210986
2076.98, 0.211166
2077.82, 0.211301
2078.65, 0.211527
2079.48, 0.211708
2080.32, 0.211753
2081.15, 0.211888
2081.99, 0.212204
2082.83, 0.212430
2083.66, 0.212520
2084.5, 0.212655
2085.34, 0.212926
2086.18, 0.212926
2087.02, 0.213062
2087.86, 0.213377
2088.7, 0.213693
2089.54, 0.213919
2090.39, 0.214145
2091.23, 0.214280
2092.07, 0.214551
2092.92, 0.214777
2093.76, 0.214957
2094.61, 0.215047
2095.45, 0.215318
2096.3, 0.215499
2097.15, 0.215769
2098.0, 0.215995
2098.85, 0.216311
2099.7, 0.216627
2100.55, 0.216988
2101.4, 0.217078
2102.25, 0.217259
2103.1, 0.217529
2103.96, 0.217891
2104.81, 0.218071
2105.67, 0.218252
2106.52, 0.218387
2107.38, 0.218613
2108.24, 0.218793
2109.09, 0.219109
2109.95, 0.219290
2110.81, 0.219606
2111.67, 0.219831
2112.53, 0.220012
2113.39, 0.220192
2114.25, 0.220463
2115.12, 0.220644
2115.98, 0.220914
2116.84, 0.221185
2117.71, 0.221546
2118.58, 0.221501
2119.44, 0.221546
2120.31, 0.221907
2121.18, 0.222449
2122.04, 0.222629
2122.91, 0.222674
2123.78, 0.222810
2124.65, 0.223216
2125.52, 0.223442
2126.4, 0.223667
2127.27, 0.223758
2128.14, 0.223938
2129.02, 0.224119
2129.89, 0.224389
2130.77, 0.224480
2131.64, 0.224660
2132.52, 0.224886
2133.4, 0.225066
2134.27, 0.225202
2135.15, 0.225563
2136.03, 0.225788
2136.91, 0.225969
2137.79, 0.226149
2138.68, 0.226375
2139.56, 0.226330
2140.44, 0.226601
2141.33, 0.226781
2142.21, 0.226872
2143.1, 0.227007
2143.99, 0.227503
2144.87, 0.227594
2145.76, 0.227548
2146.65, 0.227594
2147.54, 0.227864
2148.43, 0.228135
2149.32, 0.228271
2150.21, 0.228135
2151.1, 0.228316
2151.99, 0.228632
2152.89, 0.228948
2153.78, 0.229038
2154.68, 0.229083
2155.57, 0.229218
2156.47, 0.229489
2157.37, 0.229444
2158.27, 0.229489
2159.16, 0.229579
2160.06, 0.229715
2160.96, 0.229895
2161.86, 0.230076
2162.77, 0.230031
2163.67, 0.230211
2164.57, 0.230301
2165.48, 0.230617
2166.38, 0.230708
2167.29, 0.230798
2168.2, 0.230798
2169.1, 0.231114
2170.01, 0.231114
2170.92, 0.231024
2171.83, 0.231249
2172.74, 0.231430
2173.65, 0.231385
2174.56, 0.231520
2175.47, 0.231655
2176.39, 0.231746
2177.3, 0.231746
2178.22, 0.231836
2179.13, 0.231836
2180.05, 0.231926
2180.96, 0.231881
2181.88, 0.232062
2182.8, 0.232152
2183.72, 0.232332
2184.64, 0.232377
2185.56, 0.232377
2186.48, 0.232287
2187.41, 0.232377
2188.33, 0.232468
2189.25, 0.232468
2190.18, 0.232377
2191.1, 0.232468
2192.03, 0.232513
2192.96, 0.232603
2193.89, 0.232693
2194.82, 0.232693
2195.74, 0.232693
2196.68, 0.232739
2197.61, 0.232784
2198.54, 0.232829
2199.47, 0.232829
2200.4, 0.232874
2201.34, 0.232874
2202.28, 0.232919
2203.21, 0.232874
2204.15, 0.232874
2205.08, 0.232693
2206.02, 0.232784
2206.96, 0.232874
2207.9, 0.232964
2208.84, 0.232874
2209.78, 0.232874
2210.73, 0.232874
2211.67, 0.232919
2212.61, 0.232874
2213.56, 0.232964
2214.5, 0.232829
2215.45, 0.232919
2216.4, 0.233054
2217.35, 0.232964
2218.3, 0.232739
2219.24, 0.232784
2220.2, 0.232919
2221.15, 0.232964
2222.1, 0.232874
2223.05, 0.232964
2224.0, 0.232874
2224.96, 0.232919
2225.91, 0.232874
2226.87, 0.232829
2227.83, 0.232784
2228.79, 0.232874
2229.74, 0.232693
2230.7, 0.232648
2231.66, 0.232693
2232.63, 0.232739
2233.59, 0.232423
2234.55, 0.232377
2235.51, 0.232423
2236.48, 0.232558
2237.44, 0.232468
2238.41, 0.232423
2239.38, 0.232242
2240.34, 0.232197
2241.31, 0.232152
2242.28, 0.232242
2243.25, 0.232107
2244.22, 0.232016
2245.19, 0.231881
2246.17, 0.231881
2247.14, 0.231746
2248.12, 0.231610
2249.09, 0.231565
2250.07, 0.231520
2251.04, 0.231249
2252.02, 0.231204
2253.0, 0.230978
2253.98, 0.230843
2254.96, 0.230843
2255.94, 0.230753
2256.92, 0.230347
2257.91, 0.230256
2258.89, 0.230301
2259.88, 0.230256
2260.86, 0.229940
2261.85, 0.229805
2262.83, 0.229489
2263.82, 0.229309
2264.81, 0.229354
2265.8, 0.229309
2266.79, 0.228993
2267.78, 0.228812
2268.78, 0.228451
2269.77, 0.228271
2270.76, 0.228180
2271.76, 0.227955
2272.75, 0.227639
2273.75, 0.227458
2274.75, 0.227097
2275.75, 0.226872
2276.75, 0.226601
2277.75, 0.226285
2278.75, 0.225924
2279.75, 0.225698
2280.75, 0.225337
2281.76, 0.225066
2282.76, 0.224705
2283.77, 0.224434
2284.77, 0.224119
2285.78, 0.223803
2286.79, 0.223396
2287.8, 0.222945
2288.81, 0.222515
2289.82, 0.222085
2290.83, 0.221381
2291.84, 0.220834
2292.86, 0.220482
2293.87, 0.220091
2294.89, 0.219700
2295.91, 0.219387
2296.92, 0.218762
2297.94, 0.218136
2298.96, 0.217471
2299.98, 0.216885
2301.0, 0.216494
2302.02, 0.215985
2303.04, 0.215516
2304.07, 0.215008
