Database of Origin, USGS Spectral Database
Sample Description, See USGS database for additional info
Date Added,2016-08-10 05:24:57.890992

Data ID,USGS_pin02          
Sample ID, pinnoite_nmnh123943.17909
Mineral Name, pinnoite
Material Class,Borate

Wavelength
1423.44, 0.576220
1423.83, 0.573130
1424.22, 0.569421
1424.61, 0.566408
1425.0, 0.562854
1425.39, 0.559300
1425.78, 0.559918
1426.18, 0.560382
1426.57, 0.557600
1426.96, 0.554741
1427.36, 0.552114
1427.75, 0.549256
1428.14, 0.547092
1428.54, 0.544775
1428.93, 0.543538
1429.32, 0.539984
1429.72, 0.537126
1430.11, 0.535812
1430.51, 0.532954
1430.9, 0.530945
1431.3, 0.531254
1431.69, 0.529322
1432.09, 0.526772
1432.48, 0.524146
1432.88, 0.522987
1433.28, 0.522523
1433.67, 0.519973
1434.07, 0.517656
1434.46, 0.515260
1434.86, 0.513252
1435.26, 0.511861
1435.66, 0.510547
1436.05, 0.510857
1436.45, 0.509002
1436.85, 0.505139
1437.25, 0.501817
1437.65, 0.498649
1438.05, 0.496409
1438.44, 0.494400
1438.84, 0.491309
1439.24, 0.488605
1439.64, 0.486905
1440.04, 0.484896
1440.44, 0.482270
1440.84, 0.481960
1441.24, 0.481420
1441.65, 0.480029
1442.05, 0.480029
1442.45, 0.480570
1442.85, 0.480338
1443.25, 0.481342
1443.65, 0.482733
1444.05, 0.483583
1444.46, 0.483815
1444.86, 0.482579
1445.26, 0.481883
1445.67, 0.480879
1446.07, 0.480802
1446.47, 0.481342
1446.88, 0.480338
1447.28, 0.480029
1447.68, 0.480106
1448.09, 0.480106
1448.49, 0.478716
1448.9, 0.477634
1449.3, 0.477711
1449.71, 0.476243
1450.11, 0.475239
1450.52, 0.474775
1450.93, 0.475084
1451.33, 0.473462
1451.74, 0.471607
1452.14, 0.470758
1452.55, 0.469830
1452.96, 0.468980
1453.36, 0.468749
1453.77, 0.467513
1454.18, 0.466508
1454.59, 0.465040
1455.0, 0.464345
1455.41, 0.463340
1455.81, 0.460713
1456.22, 0.460250
1456.63, 0.461332
1457.04, 0.459400
1457.45, 0.458473
1457.86, 0.457932
1458.27, 0.458396
1458.68, 0.458241
1459.09, 0.456000
1459.5, 0.454069
1459.91, 0.453065
1460.32, 0.452446
1460.74, 0.451751
1461.15, 0.451519
1461.56, 0.450438
1461.97, 0.448583
1462.39, 0.447347
1462.8, 0.446265
1463.21, 0.446806
1463.62, 0.446806
1464.04, 0.445493
1464.45, 0.443639
1464.86, 0.443407
1465.28, 0.442711
1465.69, 0.442402
1466.11, 0.442093
1466.52, 0.441398
1466.94, 0.440857
1467.35, 0.440703
1467.77, 0.439698
1468.18, 0.436917
1468.6, 0.435758
1469.02, 0.436299
1469.43, 0.434908
1469.85, 0.435449
1470.27, 0.436299
1470.68, 0.435372
1471.1, 0.433131
1471.52, 0.432513
1471.94, 0.432204
1472.35, 0.430736
1472.77, 0.429654
1473.19, 0.429345
1473.61, 0.428650
1474.03, 0.428109
1474.45, 0.427568
1474.87, 0.426641
1475.29, 0.425327
1475.71, 0.424709
1476.13, 0.424941
1476.55, 0.423782
1476.97, 0.423319
1477.39, 0.423010
1477.81, 0.422469
1478.23, 0.421696
1478.65, 0.420383
1479.07, 0.419842
1479.5, 0.419996
1479.92, 0.419378
1480.34, 0.418297
1480.76, 0.418374
1481.19, 0.418142
1481.61, 0.417292
1482.03, 0.417369
1482.46, 0.416829
1482.88, 0.415361
1483.31, 0.414897
1483.73, 0.413970
1484.16, 0.413275
1484.58, 0.414124
1485.01, 0.413738
1485.43, 0.412193
1485.86, 0.410957
1486.28, 0.410802
1486.71, 0.410648
1487.14, 0.410261
1487.56, 0.410570
1487.99, 0.410107
1488.42, 0.408948
1488.84, 0.408716
1489.27, 0.409180
1489.7, 0.408639
1490.13, 0.407171
1490.56, 0.406321
1490.98, 0.406398
1491.41, 0.406476
1491.84, 0.406012
1492.27, 0.405394
1492.7, 0.405162
1493.13, 0.404080
1493.56, 0.402999
1493.99, 0.403385
1494.42, 0.403926
1494.85, 0.403462
1495.29, 0.403926
1495.72, 0.404235
1496.15, 0.403153
1496.58, 0.402381
1497.01, 0.401531
1497.44, 0.401531
1497.88, 0.402072
1498.31, 0.401067
1498.74, 0.399908
1499.18, 0.398904
1499.61, 0.398672
1500.04, 0.397822
1500.48, 0.397359
1500.91, 0.397822
1501.35, 0.398131
1501.78, 0.398208
1502.22, 0.397204
1502.65, 0.396509
1503.09, 0.396663
1503.53, 0.396277
1503.96, 0.394886
1504.4, 0.394036
1504.83, 0.394036
1505.27, 0.394268
1505.71, 0.393959
1506.15, 0.393496
1506.58, 0.393109
1507.02, 0.393109
1507.46, 0.392414
1507.9, 0.391873
1508.34, 0.392414
1508.78, 0.391641
1509.21, 0.391796
1509.66, 0.391718
1510.09, 0.390869
1510.53, 0.391100
1510.97, 0.391178
1511.42, 0.391023
1511.86, 0.390869
1512.3, 0.391023
1512.74, 0.391100
1513.18, 0.390791
1513.62, 0.389864
1514.06, 0.389710
1514.51, 0.390405
1514.95, 0.390405
1515.39, 0.390251
1515.83, 0.389787
1516.28, 0.389864
1516.72, 0.391023
1517.16, 0.391178
1517.61, 0.390637
1518.05, 0.390251
1518.5, 0.390019
1518.94, 0.389864
1519.39, 0.390096
1519.83, 0.389864
1520.28, 0.389787
1520.73, 0.390405
1521.17, 0.391178
1521.62, 0.391100
1522.07, 0.391178
1522.51, 0.391641
1522.96, 0.391718
1523.41, 0.391332
1523.85, 0.390946
1524.3, 0.390869
1524.75, 0.391718
1525.2, 0.392182
1525.65, 0.391718
1526.1, 0.391409
1526.55, 0.391873
1527.0, 0.392723
1527.45, 0.392568
1527.9, 0.392646
1528.35, 0.393650
1528.8, 0.393650
1529.25, 0.392800
1529.7, 0.392877
1530.15, 0.393341
1530.6, 0.393032
1531.05, 0.392877
1531.51, 0.393418
1531.96, 0.393496
1532.41, 0.392955
1532.87, 0.392723
1533.32, 0.392877
1533.77, 0.393186
1534.23, 0.393032
1534.68, 0.393264
1535.14, 0.393341
1535.59, 0.393032
1536.05, 0.392414
1536.5, 0.392491
1536.96, 0.392955
1537.41, 0.392646
1537.87, 0.392800
1538.32, 0.393418
1538.78, 0.393573
1539.24, 0.393186
1539.7, 0.393186
1540.15, 0.393032
1540.61, 0.392723
1541.07, 0.392723
1541.53, 0.393186
1541.98, 0.393418
1542.44, 0.393573
1542.9, 0.393186
1543.36, 0.392877
1543.82, 0.393418
1544.28, 0.393109
1544.74, 0.392337
1545.2, 0.392182
1545.66, 0.393032
1546.12, 0.393650
1546.59, 0.392955
1547.05, 0.392259
1547.51, 0.392800
1547.97, 0.393186
1548.43, 0.393186
1548.9, 0.393264
1549.36, 0.393264
1549.82, 0.393496
1550.29, 0.393418
1550.75, 0.393186
1551.21, 0.393805
1551.68, 0.394114
1552.14, 0.394036
1552.61, 0.394036
1553.07, 0.393727
1553.54, 0.393959
1554.0, 0.394577
1554.47, 0.394963
1554.93, 0.395427
1555.4, 0.395736
1555.87, 0.396122
1556.34, 0.396509
1556.8, 0.396663
1557.27, 0.397281
1557.74, 0.397977
1558.21, 0.398363
1558.68, 0.398749
1559.14, 0.399290
1559.61, 0.400449
1560.08, 0.401917
1560.55, 0.402303
1561.02, 0.402226
1561.49, 0.402690
1561.96, 0.403076
1562.43, 0.403849
1562.9, 0.404930
1563.38, 0.405394
1563.85, 0.405394
1564.32, 0.405626
1564.79, 0.406398
1565.26, 0.406939
1565.74, 0.407557
1566.21, 0.407789
1566.68, 0.408098
1567.16, 0.408562
1567.63, 0.409180
1568.1, 0.409566
1568.58, 0.410416
1569.05, 0.410725
1569.53, 0.410184
1570.0, 0.410416
1570.48, 0.411034
1570.96, 0.411034
1571.43, 0.411188
1571.91, 0.411652
1572.39, 0.412038
1572.86, 0.412347
1573.34, 0.412888
1573.82, 0.412966
1574.3, 0.412734
1574.77, 0.413043
1575.25, 0.413275
1575.73, 0.412966
1576.21, 0.413429
1576.69, 0.413506
1577.17, 0.413970
1577.65, 0.414047
1578.13, 0.413893
1578.61, 0.414279
1579.09, 0.414279
1579.57, 0.414124
1580.05, 0.414588
1580.54, 0.415283
1581.02, 0.415438
1581.5, 0.415361
1581.98, 0.415438
1582.47, 0.415438
1582.95, 0.415438
1583.43, 0.415515
1583.92, 0.415515
1584.4, 0.415052
1584.88, 0.415361
1585.37, 0.415670
1585.85, 0.415670
1586.34, 0.415670
1586.82, 0.415979
1587.31, 0.416211
1587.8, 0.415979
1588.28, 0.415592
1588.77, 0.416211
1589.26, 0.416597
1589.74, 0.416056
1590.23, 0.415592
1590.72, 0.415901
1591.21, 0.415901
1591.7, 0.415670
1592.19, 0.416056
1592.67, 0.416365
1593.16, 0.416211
1593.65, 0.415901
1594.14, 0.415515
1594.63, 0.415052
1595.12, 0.415283
1595.61, 0.416133
1596.11, 0.416442
1596.6, 0.415747
1597.09, 0.415592
1597.58, 0.415979
1598.08, 0.416133
1598.57, 0.415901
1599.06, 0.415747
1599.55, 0.416133
1600.05, 0.415824
1600.54, 0.415361
1601.04, 0.415747
1601.53, 0.415979
1602.03, 0.415670
1602.52, 0.415438
1603.02, 0.415515
1603.51, 0.415670
1604.01, 0.415206
1604.5, 0.415129
1605.0, 0.415592
1605.5, 0.415670
1606.0, 0.415515
1606.49, 0.415361
1606.99, 0.414974
1607.49, 0.415052
1607.99, 0.415206
1608.49, 0.414974
1608.99, 0.414511
1609.49, 0.414202
1609.99, 0.414511
1610.49, 0.414743
1610.99, 0.414202
1611.49, 0.413815
1611.99, 0.414202
1612.49, 0.413970
1612.99, 0.413661
1613.49, 0.413970
1614.0, 0.414279
1614.5, 0.413893
1615.0, 0.413661
1615.51, 0.413815
1616.01, 0.413429
1616.51, 0.413043
1617.02, 0.413275
1617.52, 0.413275
1618.03, 0.412656
1618.53, 0.412425
1619.04, 0.412425
1619.54, 0.412193
1620.05, 0.412193
1620.55, 0.412193
1621.06, 0.412193
1621.57, 0.411884
1622.08, 0.411807
1622.58, 0.411807
1623.09, 0.411266
1623.6, 0.411188
1624.11, 0.410802
1624.62, 0.410725
1625.13, 0.410802
1625.64, 0.410648
1626.15, 0.410416
1626.66, 0.410107
1627.17, 0.410107
1627.68, 0.410416
1628.19, 0.410107
1628.7, 0.409566
1629.21, 0.409798
1629.72, 0.409875
1630.24, 0.409566
1630.75, 0.409025
1631.26, 0.408793
1631.78, 0.408871
1632.29, 0.409102
1632.8, 0.409257
1633.32, 0.408871
1633.83, 0.408330
1634.35, 0.408407
1634.86, 0.408484
1635.38, 0.408639
1635.9, 0.408871
1636.41, 0.408871
1636.93, 0.408253
1637.45, 0.407712
1637.96, 0.408021
1638.48, 0.408253
1639.0, 0.407789
1639.52, 0.407866
1640.04, 0.408175
1640.56, 0.407866
1641.08, 0.408098
1641.59, 0.408253
1642.11, 0.407943
1642.63, 0.408021
1643.16, 0.408175
1643.68, 0.408407
1644.2, 0.408562
1644.72, 0.408407
1645.24, 0.407943
1645.76, 0.408098
1646.29, 0.408716
1646.81, 0.409025
1647.33, 0.408716
1647.86, 0.408484
1648.38, 0.408407
1648.9, 0.408871
1649.43, 0.409180
1649.95, 0.409334
1650.48, 0.409257
1651.0, 0.409566
1651.53, 0.409875
1652.06, 0.409798
1652.58, 0.409875
1653.11, 0.410184
1653.64, 0.410261
1654.17, 0.410184
1654.69, 0.410416
1655.22, 0.410493
1655.75, 0.410261
1656.28, 0.410416
1656.81, 0.410725
1657.34, 0.410957
1657.87, 0.411498
1658.4, 0.411188
1658.93, 0.410957
1659.46, 0.411498
1659.99, 0.411729
1660.52, 0.411343
1661.05, 0.411343
1661.59, 0.411729
1662.12, 0.411961
1662.65, 0.411807
1663.19, 0.411961
1663.72, 0.411884
1664.26, 0.411729
1664.79, 0.411729
1665.32, 0.411961
1665.86, 0.412425
1666.39, 0.412656
1666.93, 0.412966
1667.47, 0.413197
1668.0, 0.413352
1668.54, 0.413275
1669.08, 0.412888
1669.61, 0.412811
1670.15, 0.413120
1670.69, 0.413429
1671.23, 0.413661
1671.77, 0.413815
1672.31, 0.413738
1672.85, 0.413815
1673.39, 0.413970
1673.93, 0.413970
1674.47, 0.413893
1675.01, 0.414124
1675.55, 0.414356
1676.09, 0.414511
1676.64, 0.414743
1677.18, 0.414974
1677.72, 0.415129
1678.26, 0.415129
1678.81, 0.415206
1679.35, 0.415283
1679.89, 0.415283
1680.44, 0.415747
1680.98, 0.416056
1681.53, 0.416056
1682.07, 0.416133
1682.62, 0.416674
1683.17, 0.416906
1683.71, 0.416829
1684.26, 0.416829
1684.81, 0.416751
1685.36, 0.416520
1685.9, 0.416906
1686.45, 0.417292
1687.0, 0.417447
1687.55, 0.417678
1688.1, 0.417833
1688.65, 0.417756
1689.2, 0.417910
1689.75, 0.418297
1690.3, 0.418142
1690.85, 0.418065
1691.41, 0.418142
1691.96, 0.418374
1692.51, 0.418837
1693.06, 0.418992
1693.61, 0.418606
1694.17, 0.418760
1694.72, 0.419069
1695.28, 0.419301
1695.83, 0.419224
1696.39, 0.419301
1696.94, 0.419301
1697.5, 0.419378
1698.05, 0.419765
1698.61, 0.420228
1699.17, 0.420614
1699.72, 0.420537
1700.28, 0.420537
1700.84, 0.420846
1701.4, 0.420846
1701.95, 0.420692
1702.51, 0.420692
1703.07, 0.421078
1703.63, 0.420924
1704.19, 0.421078
1704.75, 0.421078
1705.31, 0.421078
1705.88, 0.421310
1706.44, 0.421464
1707.0, 0.421619
1707.56, 0.421619
1708.12, 0.421619
1708.69, 0.421928
1709.25, 0.421696
1709.81, 0.421773
1710.38, 0.422160
1710.94, 0.422237
1711.51, 0.422314
1712.07, 0.422391
1712.64, 0.422469
1713.2, 0.422855
1713.77, 0.423087
1714.34, 0.423164
1714.9, 0.423241
1715.47, 0.423087
1716.04, 0.422855
1716.61, 0.423319
1717.18, 0.423782
1717.74, 0.424014
1718.31, 0.423782
1718.88, 0.423705
1719.45, 0.423937
1720.02, 0.423859
1720.59, 0.423937
1721.17, 0.424168
1721.74, 0.424091
1722.31, 0.424014
1722.88, 0.424246
1723.45, 0.424091
1724.03, 0.423859
1724.6, 0.423782
1725.18, 0.423782
1725.75, 0.423859
1726.33, 0.423937
1726.9, 0.423937
1727.48, 0.423628
1728.05, 0.423396
1728.63, 0.423550
1729.2, 0.423628
1729.78, 0.423628
1730.36, 0.423550
1730.94, 0.423319
1731.51, 0.423010
1732.09, 0.422932
1732.67, 0.422855
1733.25, 0.423164
1733.83, 0.423164
1734.41, 0.422855
1734.99, 0.422623
1735.57, 0.422623
1736.15, 0.422237
1736.73, 0.422237
1737.32, 0.422160
1737.9, 0.422005
1738.48, 0.422160
1739.07, 0.422082
1739.65, 0.421851
1740.23, 0.421696
1740.82, 0.421696
1741.4, 0.421696
1741.99, 0.421619
1742.57, 0.421387
1743.16, 0.421387
1743.74, 0.421310
1744.33, 0.421155
1744.92, 0.420846
1745.51, 0.420692
1746.09, 0.420846
1746.68, 0.420769
1747.27, 0.420692
1747.86, 0.421078
1748.45, 0.421310
1749.04, 0.421155
1749.63, 0.420846
1750.22, 0.420692
1750.81, 0.420924
1751.4, 0.420924
1751.99, 0.420846
1752.59, 0.420924
1753.18, 0.420924
1753.77, 0.420769
1754.37, 0.420769
1754.96, 0.421233
1755.56, 0.421310
1756.15, 0.421001
1756.74, 0.421001
1757.34, 0.421310
1757.94, 0.421464
1758.53, 0.421233
1759.13, 0.421078
1759.73, 0.421464
1760.32, 0.421696
1760.92, 0.421619
1761.52, 0.421464
1762.12, 0.421464
1762.72, 0.421542
1763.32, 0.421542
1763.92, 0.421542
1764.52, 0.421619
1765.12, 0.422005
1765.72, 0.422237
1766.32, 0.421851
1766.92, 0.421619
1767.53, 0.421928
1768.13, 0.422005
1768.73, 0.421851
1769.34, 0.422237
1769.94, 0.422237
1770.55, 0.422237
1771.15, 0.422314
1771.76, 0.422546
1772.36, 0.422623
1772.97, 0.422778
1773.57, 0.422932
1774.18, 0.422778
1774.79, 0.422701
1775.4, 0.422623
1776.0, 0.422701
1776.61, 0.423087
1777.22, 0.423319
1777.83, 0.423164
1778.44, 0.423010
1779.05, 0.423164
1779.66, 0.423396
1780.27, 0.423628
1780.88, 0.423473
1781.5, 0.423087
1782.11, 0.423164
1782.72, 0.423628
1783.33, 0.423705
1783.95, 0.423396
1784.56, 0.423473
1785.18, 0.423859
1785.79, 0.423782
1786.41, 0.423550
1787.02, 0.423550
1787.64, 0.423550
1788.26, 0.423473
1788.87, 0.423550
1789.49, 0.423705
1790.11, 0.423937
1790.73, 0.424091
1791.35, 0.424168
1791.96, 0.424091
1792.58, 0.424091
1793.21, 0.423859
1793.83, 0.423937
1794.45, 0.424014
1795.07, 0.424014
1795.69, 0.424091
1796.31, 0.424091
1796.93, 0.424400
1797.56, 0.424632
1798.18, 0.424555
1798.8, 0.424632
1799.43, 0.424555
1800.05, 0.424400
1800.68, 0.424400
1801.3, 0.424323
1801.93, 0.424168
1802.56, 0.424091
1803.18, 0.424246
1803.81, 0.424400
1804.44, 0.424246
1805.07, 0.424323
1805.7, 0.424091
1806.33, 0.423937
1806.95, 0.424168
1807.58, 0.424400
1808.22, 0.424632
1808.85, 0.424787
1809.48, 0.424941
1810.11, 0.424555
1810.74, 0.424246
1811.38, 0.424246
1812.01, 0.424323
1812.64, 0.424555
1813.28, 0.424632
1813.91, 0.424555
1814.55, 0.424323
1815.18, 0.424014
1815.82, 0.424091
1816.45, 0.424091
1817.09, 0.423859
1817.73, 0.424014
1818.36, 0.424091
1819.0, 0.424168
1819.64, 0.423937
1820.28, 0.423937
1820.92, 0.423937
1821.56, 0.424014
1822.2, 0.424168
1822.84, 0.424555
1823.48, 0.424709
1824.12, 0.424478
1824.76, 0.424478
1825.41, 0.424168
1826.05, 0.423396
1826.69, 0.423705
1827.34, 0.424478
1827.98, 0.424400
1828.63, 0.424091
1829.27, 0.424168
1829.92, 0.424246
1830.56, 0.424091
1831.21, 0.423782
1831.86, 0.424091
1832.5, 0.424400
1833.15, 0.424323
1833.8, 0.424246
1834.45, 0.424091
1835.1, 0.423937
1835.75, 0.423628
1836.4, 0.423319
1837.05, 0.423550
1837.7, 0.423550
1838.35, 0.423859
1839.01, 0.423859
1839.66, 0.423473
1840.31, 0.423628
1840.96, 0.423550
1841.62, 0.422855
1842.27, 0.423010
1842.93, 0.423473
1843.58, 0.423782
1844.24, 0.424014
1844.9, 0.424400
1845.55, 0.424400
1846.21, 0.423241
1846.87, 0.421619
1847.53, 0.421542
1848.18, 0.422160
1848.84, 0.422855
1849.5, 0.422778
1850.16, 0.422701
1850.82, 0.422701
1851.48, 0.422932
1852.14, 0.422623
1852.81, 0.422160
1853.47, 0.421387
1854.13, 0.421233
1854.8, 0.421851
1855.46, 0.421851
1856.12, 0.421155
1856.79, 0.420846
1857.45, 0.421078
1858.12, 0.421464
1858.79, 0.421155
1859.45, 0.420228
1860.12, 0.420151
1860.79, 0.420383
1861.46, 0.420383
1862.12, 0.419996
1862.79, 0.419842
1863.46, 0.419610
1864.13, 0.419378
1864.8, 0.419069
1865.48, 0.418992
1866.15, 0.418915
1866.82, 0.418142
1867.49, 0.416906
1868.16, 0.416365
1868.84, 0.416288
1869.51, 0.416133
1870.19, 0.415515
1870.86, 0.414511
1871.54, 0.414588
1872.21, 0.414279
1872.89, 0.413043
1873.56, 0.412656
1874.24, 0.412734
1874.92, 0.412425
1875.6, 0.412347
1876.28, 0.411343
1876.96, 0.410107
1877.64, 0.409875
1878.32, 0.409875
1879.0, 0.409257
1879.68, 0.408639
1880.36, 0.407557
1881.04, 0.406630
1881.73, 0.405935
1882.41, 0.405008
1883.09, 0.403926
1883.78, 0.402844
1884.46, 0.401840
1885.15, 0.400835
1885.83, 0.400063
1886.52, 0.399058
1887.21, 0.398208
1887.89, 0.397590
1888.58, 0.396509
1889.27, 0.395041
1889.96, 0.393650
1890.65, 0.392646
1891.34, 0.391564
1892.03, 0.390328
1892.72, 0.389401
1893.41, 0.388473
1894.1, 0.387160
1894.79, 0.385769
1895.49, 0.384456
1896.18, 0.383142
1896.87, 0.381752
1897.57, 0.380284
1898.26, 0.378816
1898.96, 0.377348
1899.65, 0.375571
1900.35, 0.373948
1901.05, 0.373021
1901.74, 0.371939
1902.44, 0.370008
1903.14, 0.368231
1903.84, 0.367226
1904.54, 0.365681
1905.24, 0.363750
1905.94, 0.362436
1906.64, 0.361123
1907.34, 0.360118
1908.04, 0.359037
1908.75, 0.357646
1909.45, 0.356255
1910.15, 0.354787
1910.86, 0.353319
1911.56, 0.352006
1912.27, 0.350770
1912.97, 0.349456
1913.68, 0.348297
1914.39, 0.347679
1915.09, 0.346597
1915.8, 0.345207
1916.51, 0.344357
1917.22, 0.343661
1917.93, 0.342503
1918.64, 0.341575
1919.35, 0.340416
1920.06, 0.339026
1920.77, 0.338176
1921.48, 0.337790
1922.19, 0.337403
1922.91, 0.336785
1923.62, 0.335858
1924.33, 0.335240
1925.05, 0.334854
1925.76, 0.334158
1926.48, 0.333154
1927.19, 0.332690
1927.91, 0.332304
1928.63, 0.331995
1929.35, 0.331763
1930.07, 0.331300
1930.78, 0.330913
1931.5, 0.330604
1932.22, 0.329909
1932.94, 0.329445
1933.66, 0.328904
1934.39, 0.328518
1935.11, 0.328595
1935.83, 0.328209
1936.55, 0.327823
1937.28, 0.327668
1938.0, 0.327436
1938.73, 0.327050
1939.45, 0.326896
1940.18, 0.326896
1940.9, 0.326741
1941.63, 0.326432
1942.36, 0.326278
1943.09, 0.326123
1943.81, 0.325968
1944.54, 0.325659
1945.27, 0.325196
1946.0, 0.325119
1946.73, 0.325196
1947.47, 0.325196
1948.2, 0.325350
1948.93, 0.325196
1949.66, 0.324887
1950.4, 0.324269
1951.13, 0.324037
1951.86, 0.324114
1952.6, 0.324114
1953.34, 0.324114
1954.07, 0.324114
1954.81, 0.323960
1955.55, 0.323805
1956.29, 0.323728
1957.02, 0.323573
1957.76, 0.323342
1958.5, 0.323032
1959.24, 0.322955
1959.98, 0.323187
1960.72, 0.323264
1961.47, 0.322955
1962.21, 0.322646
1962.95, 0.322646
1963.7, 0.322569
1964.44, 0.322492
1965.18, 0.322569
1965.93, 0.322646
1966.67, 0.322569
1967.42, 0.322414
1968.17, 0.322183
1968.92, 0.322105
1969.66, 0.321951
1970.41, 0.321874
1971.16, 0.321951
1971.91, 0.322028
1972.66, 0.322028
1973.41, 0.321796
1974.16, 0.321951
1974.92, 0.322105
1975.67, 0.322028
1976.42, 0.321951
1977.18, 0.322028
1977.93, 0.321951
1978.69, 0.321874
1979.44, 0.321719
1980.2, 0.321642
1980.95, 0.321565
1981.71, 0.321719
1982.47, 0.321719
1983.23, 0.321719
1983.99, 0.321565
1984.74, 0.321487
1985.51, 0.321642
1986.27, 0.321951
1987.03, 0.321874
1987.79, 0.321874
1988.55, 0.321796
1989.32, 0.321642
1990.08, 0.321796
1990.84, 0.322028
1991.61, 0.321951
1992.37, 0.322028
1993.14, 0.322183
1993.9, 0.322260
