Database of Origin, USGS Spectral Database
Sample Description, See USGS database for additional info
Date Added,2016-08-03 21:32:02.823342

Data ID,USGS_end02          
Sample ID, endellite_gds16.7391
Mineral Name, endellite
Material Class,Phyllosilicate

Wavelength
1364.61, 0.387362
1364.97, 0.387035
1365.33, 0.386763
1365.69, 0.386490
1366.05, 0.385728
1366.41, 0.384422
1366.77, 0.383169
1367.13, 0.382407
1367.49, 0.381318
1367.85, 0.380230
1368.21, 0.378542
1368.57, 0.377344
1368.93, 0.376854
1369.3, 0.376418
1369.66, 0.375493
1370.02, 0.374186
1370.38, 0.372553
1370.74, 0.370811
1371.11, 0.369722
1371.47, 0.368524
1371.83, 0.367381
1372.19, 0.366129
1372.56, 0.364278
1372.92, 0.361991
1373.29, 0.360303
1373.65, 0.358779
1374.01, 0.356656
1374.38, 0.354532
1374.74, 0.352355
1375.11, 0.350014
1375.47, 0.347727
1375.84, 0.345277
1376.2, 0.342664
1376.57, 0.339887
1376.93, 0.337546
1377.3, 0.334497
1377.67, 0.331449
1378.03, 0.328509
1378.4, 0.325351
1378.76, 0.322302
1379.13, 0.319253
1379.5, 0.315932
1379.87, 0.312666
1380.23, 0.308583
1380.6, 0.305044
1380.97, 0.302594
1381.34, 0.300144
1381.7, 0.296605
1382.07, 0.292957
1382.44, 0.290072
1382.81, 0.287840
1383.18, 0.285662
1383.55, 0.283484
1383.92, 0.281416
1384.29, 0.279401
1384.66, 0.277332
1385.03, 0.275372
1385.4, 0.273739
1385.77, 0.272541
1386.14, 0.271888
1386.51, 0.271452
1386.88, 0.270636
1387.25, 0.269710
1387.62, 0.269111
1387.99, 0.269166
1388.36, 0.269275
1388.74, 0.269438
1389.11, 0.269983
1389.48, 0.270418
1389.85, 0.270581
1390.23, 0.270854
1390.6, 0.271725
1390.97, 0.272922
1391.35, 0.274066
1391.72, 0.274665
1392.09, 0.275318
1392.47, 0.276189
1392.84, 0.277605
1393.21, 0.279129
1393.59, 0.279891
1393.96, 0.280817
1394.34, 0.281960
1394.71, 0.282831
1395.09, 0.284029
1395.46, 0.285608
1395.84, 0.286479
1396.22, 0.286914
1396.59, 0.287840
1396.97, 0.289310
1397.35, 0.290508
1397.72, 0.291161
1398.1, 0.291814
1398.48, 0.293066
1398.85, 0.293447
1399.23, 0.293665
1399.61, 0.294591
1399.99, 0.295516
1400.37, 0.295843
1400.74, 0.296170
1401.12, 0.296877
1401.5, 0.297095
1401.88, 0.297095
1402.26, 0.297258
1402.64, 0.297531
1403.02, 0.297585
1403.4, 0.297367
1403.78, 0.296823
1404.16, 0.295625
1404.54, 0.294373
1404.92, 0.293502
1405.3, 0.292522
1405.68, 0.291052
1406.06, 0.289255
1406.44, 0.286805
1406.83, 0.283648
1407.21, 0.280436
1407.59, 0.277115
1407.97, 0.273467
1408.35, 0.269874
1408.74, 0.265137
1409.12, 0.260346
1409.5, 0.256045
1409.89, 0.251853
1410.27, 0.247824
1410.65, 0.244449
1411.04, 0.241563
1411.42, 0.239331
1411.81, 0.237807
1412.19, 0.237153
1412.58, 0.237153
1412.96, 0.237970
1413.35, 0.239767
1413.73, 0.241999
1414.12, 0.244884
1414.5, 0.249076
1414.89, 0.254249
1415.28, 0.259747
1415.66, 0.265192
1416.05, 0.271126
1416.44, 0.276951
1416.82, 0.282613
1417.21, 0.287949
1417.6, 0.293230
1417.98, 0.297966
1418.37, 0.302267
1418.76, 0.305860
1419.15, 0.309236
1419.54, 0.312611
1419.93, 0.315334
1420.32, 0.318165
1420.71, 0.321213
1421.09, 0.323609
1421.48, 0.325242
1421.88, 0.326984
1422.27, 0.328781
1422.66, 0.330305
1423.05, 0.331449
1423.44, 0.332592
1423.83, 0.334280
1424.22, 0.335913
1424.61, 0.337056
1425.0, 0.338145
1425.39, 0.339234
1425.78, 0.340160
1426.18, 0.341466
1426.57, 0.342773
1426.96, 0.344188
1427.36, 0.344950
1427.75, 0.345876
1428.14, 0.347019
1428.54, 0.348054
1428.93, 0.348653
1429.32, 0.348979
1429.72, 0.349796
1430.11, 0.351211
1430.51, 0.351974
1430.9, 0.352191
1431.3, 0.352681
1431.69, 0.353879
1432.09, 0.354478
1432.48, 0.355131
1432.88, 0.355839
1433.28, 0.356111
1433.67, 0.356710
1434.07, 0.357255
1434.46, 0.358071
1434.86, 0.358833
1435.26, 0.359323
1435.66, 0.359813
1436.05, 0.359977
1436.45, 0.360576
1436.85, 0.361447
1437.25, 0.361991
1437.65, 0.362372
1438.05, 0.362808
1438.44, 0.363026
1438.84, 0.363570
1439.24, 0.363515
1439.64, 0.363951
1440.04, 0.364441
1440.44, 0.364495
1440.84, 0.364604
1441.24, 0.365475
1441.65, 0.365693
1442.05, 0.365857
1442.45, 0.365693
1442.85, 0.366183
1443.25, 0.366564
1443.65, 0.366891
1444.05, 0.367109
1444.46, 0.367327
1444.86, 0.367653
1445.26, 0.367708
1445.67, 0.367980
1446.07, 0.368252
1446.47, 0.368361
1446.88, 0.368361
1447.28, 0.368688
1447.68, 0.369123
1448.09, 0.369395
1448.49, 0.369450
1448.9, 0.369450
1449.3, 0.369613
1449.71, 0.369668
1450.11, 0.369722
1450.52, 0.370049
1450.93, 0.370321
1451.33, 0.370702
1451.74, 0.370920
1452.14, 0.370702
1452.55, 0.370484
1452.96, 0.370593
1453.36, 0.370756
1453.77, 0.370702
1454.18, 0.370865
1454.59, 0.371029
1455.0, 0.371301
1455.41, 0.371628
1455.81, 0.371573
1456.22, 0.371628
1456.63, 0.371845
1457.04, 0.371900
1457.45, 0.371573
1457.86, 0.371519
1458.27, 0.371355
1458.68, 0.371246
1459.09, 0.371519
1459.5, 0.371573
1459.91, 0.371464
1460.32, 0.371519
1460.74, 0.371573
1461.15, 0.371682
1461.56, 0.371628
1461.97, 0.371573
1462.39, 0.371791
1462.8, 0.371845
1463.21, 0.371791
1463.62, 0.371736
1464.04, 0.371682
1464.45, 0.371682
1464.86, 0.371573
1465.28, 0.371573
1465.69, 0.371464
1466.11, 0.371628
1466.52, 0.371900
1466.94, 0.372172
1467.35, 0.372117
1467.77, 0.372009
1468.18, 0.372009
1468.6, 0.372009
1469.02, 0.372281
1469.43, 0.372499
1469.85, 0.372607
1470.27, 0.372716
1470.68, 0.372771
1471.1, 0.372880
1471.52, 0.372989
1471.94, 0.373261
1472.35, 0.373261
1472.77, 0.373315
1473.19, 0.373533
1473.61, 0.373533
1474.03, 0.373479
1474.45, 0.373587
1474.87, 0.373805
1475.29, 0.374132
1475.71, 0.374295
1476.13, 0.374295
1476.55, 0.374350
1476.97, 0.374731
1477.39, 0.374840
1477.81, 0.375003
1478.23, 0.374894
1478.65, 0.375112
1479.07, 0.375384
1479.5, 0.375439
1479.92, 0.375711
1480.34, 0.375929
1480.76, 0.376037
1481.19, 0.375874
1481.61, 0.376092
1482.03, 0.376255
1482.46, 0.376310
1482.88, 0.376092
1483.31, 0.376092
1483.73, 0.376364
1484.16, 0.376854
1484.58, 0.376800
1485.01, 0.376745
1485.43, 0.376963
1485.86, 0.377235
1486.28, 0.377562
1486.71, 0.377725
1487.14, 0.377507
1487.56, 0.377725
1487.99, 0.378215
1488.42, 0.378052
1488.84, 0.377888
1489.27, 0.377997
1489.7, 0.378324
1490.13, 0.378487
1490.56, 0.378596
1490.98, 0.378814
1491.41, 0.378868
1491.84, 0.378977
1492.27, 0.378705
1492.7, 0.378651
1493.13, 0.378977
1493.56, 0.379141
1493.99, 0.379304
1494.42, 0.379250
1494.85, 0.379250
1495.29, 0.379250
1495.72, 0.379358
1496.15, 0.379685
1496.58, 0.380012
1497.01, 0.380230
1497.44, 0.380284
1497.88, 0.380066
1498.31, 0.380066
1498.74, 0.380066
1499.18, 0.380175
1499.61, 0.380447
1500.04, 0.380502
1500.48, 0.380447
1500.91, 0.380393
1501.35, 0.380338
1501.78, 0.380665
1502.22, 0.381101
1502.65, 0.381101
1503.09, 0.381046
1503.53, 0.381101
1503.96, 0.381427
1504.4, 0.381645
1504.83, 0.381808
1505.27, 0.382026
1505.71, 0.382026
1506.15, 0.381645
1506.58, 0.381808
1507.02, 0.381863
1507.46, 0.382135
1507.9, 0.382244
1508.34, 0.382298
1508.78, 0.382407
1509.21, 0.382516
1509.66, 0.382625
1510.09, 0.382625
1510.53, 0.382679
1510.97, 0.382788
1511.42, 0.382952
1511.86, 0.383061
1512.3, 0.382952
1512.74, 0.382952
1513.18, 0.382952
1513.62, 0.383061
1514.06, 0.383169
1514.51, 0.383333
1514.95, 0.383551
1515.39, 0.383551
1515.83, 0.383387
1516.28, 0.383496
1516.72, 0.384040
1517.16, 0.384258
1517.61, 0.384258
1518.05, 0.384095
1518.5, 0.384095
1518.94, 0.384258
1519.39, 0.384258
1519.83, 0.384204
1520.28, 0.384204
1520.73, 0.384367
1521.17, 0.384476
1521.62, 0.384585
1522.07, 0.384639
1522.51, 0.384639
1522.96, 0.384748
1523.41, 0.384803
1523.85, 0.384803
1524.3, 0.384530
1524.75, 0.384367
1525.2, 0.384639
1525.65, 0.384748
1526.1, 0.385075
1526.55, 0.385293
1527.0, 0.385184
1527.45, 0.385129
1527.9, 0.385456
1528.35, 0.385510
1528.8, 0.385728
1529.25, 0.385728
1529.7, 0.385565
1530.15, 0.385728
1530.6, 0.385946
1531.05, 0.385892
1531.51, 0.386164
1531.96, 0.386273
1532.41, 0.386109
1532.87, 0.386109
1533.32, 0.386109
1533.77, 0.386382
1534.23, 0.386654
1534.68, 0.386599
1535.14, 0.386763
1535.59, 0.386980
1536.05, 0.387144
1536.5, 0.387144
1536.96, 0.387416
1537.41, 0.387362
1537.87, 0.387416
1538.32, 0.387470
1538.78, 0.387688
1539.24, 0.387797
1539.7, 0.387906
1540.15, 0.388233
1540.61, 0.388559
1541.07, 0.388777
1541.53, 0.388940
1541.98, 0.389267
1542.44, 0.389376
1542.9, 0.389049
1543.36, 0.388777
1543.82, 0.388831
1544.28, 0.389158
1544.74, 0.389049
1545.2, 0.389158
1545.66, 0.389485
1546.12, 0.389811
1546.59, 0.389703
1547.05, 0.389648
1547.51, 0.390029
1547.97, 0.390138
1548.43, 0.389975
1548.9, 0.389866
1549.36, 0.390084
1549.82, 0.390519
1550.29, 0.390846
1550.75, 0.391064
1551.21, 0.391064
1551.68, 0.391336
1552.14, 0.391118
1552.61, 0.391173
1553.07, 0.391445
1553.54, 0.391554
1554.0, 0.391499
1554.47, 0.391608
1554.93, 0.391989
1555.4, 0.392207
1555.87, 0.392098
1556.34, 0.392098
1556.8, 0.392207
1557.27, 0.392098
1557.74, 0.392261
1558.21, 0.392642
1558.68, 0.392588
1559.14, 0.392534
1559.61, 0.392697
1560.08, 0.392642
1560.55, 0.392642
1561.02, 0.392915
1561.49, 0.393187
1561.96, 0.393514
1562.43, 0.393677
1562.9, 0.393677
1563.38, 0.393677
1563.85, 0.393840
1564.32, 0.393840
1564.79, 0.393622
1565.26, 0.393895
1565.74, 0.394276
1566.21, 0.394330
1566.68, 0.394276
1567.16, 0.394112
1567.63, 0.394221
1568.1, 0.394602
1568.58, 0.394657
1569.05, 0.394657
1569.53, 0.394929
1570.0, 0.395256
1570.48, 0.395365
1570.96, 0.395201
1571.43, 0.395038
1571.91, 0.395038
1572.39, 0.395147
1572.86, 0.395365
1573.34, 0.395474
1573.82, 0.395365
1574.3, 0.395365
1574.77, 0.395365
1575.25, 0.395365
1575.73, 0.395528
1576.21, 0.396018
1576.69, 0.396290
1577.17, 0.396181
1577.65, 0.396399
1578.13, 0.396290
1578.61, 0.396127
1579.09, 0.396290
1579.57, 0.396453
1580.05, 0.396671
1580.54, 0.396671
1581.02, 0.396780
1581.5, 0.396889
1581.98, 0.396726
1582.47, 0.396726
1582.95, 0.396998
1583.43, 0.397325
1583.92, 0.397542
1584.4, 0.397270
1584.88, 0.397161
1585.37, 0.397270
1585.85, 0.397216
1586.34, 0.397161
1586.82, 0.397488
1587.31, 0.397651
1587.8, 0.397815
1588.28, 0.397869
1588.77, 0.398196
1589.26, 0.398250
1589.74, 0.398087
1590.23, 0.398250
1590.72, 0.398413
1591.21, 0.398413
1591.7, 0.398577
1592.19, 0.398740
1592.67, 0.398849
1593.16, 0.398686
1593.65, 0.398740
1594.14, 0.398849
1594.63, 0.398958
1595.12, 0.399176
1595.61, 0.399448
1596.11, 0.399448
1596.6, 0.399720
1597.09, 0.399775
1597.58, 0.399829
1598.08, 0.399720
1598.57, 0.399775
1599.06, 0.399992
1599.55, 0.400482
1600.05, 0.400755
1600.54, 0.400591
1601.04, 0.400319
1601.53, 0.400646
1602.03, 0.400863
1602.52, 0.400809
1603.02, 0.400755
1603.51, 0.401136
1604.01, 0.401244
1604.5, 0.401299
1605.0, 0.401462
1605.5, 0.401626
1606.0, 0.401789
1606.49, 0.402061
1606.99, 0.402116
1607.49, 0.402279
1607.99, 0.402279
1608.49, 0.402279
1608.99, 0.402442
1609.49, 0.402769
1609.99, 0.402878
1610.49, 0.402823
1610.99, 0.402769
1611.49, 0.402932
1611.99, 0.403150
1612.49, 0.403531
1612.99, 0.403694
1613.49, 0.403422
1614.0, 0.403204
1614.5, 0.403422
1615.0, 0.403477
1615.51, 0.403694
1616.01, 0.403912
1616.51, 0.403858
1617.02, 0.403803
1617.52, 0.404239
1618.03, 0.404457
1618.53, 0.404402
1619.04, 0.404457
1619.54, 0.404620
1620.05, 0.404783
1620.55, 0.405056
1621.06, 0.405328
1621.57, 0.405273
1622.08, 0.405273
1622.58, 0.405273
1623.09, 0.405273
1623.6, 0.405328
1624.11, 0.405437
1624.62, 0.405763
1625.13, 0.405927
1625.64, 0.405927
1626.15, 0.406035
1626.66, 0.406144
1627.17, 0.406253
1627.68, 0.406471
1628.19, 0.406417
1628.7, 0.406417
1629.21, 0.406525
1629.72, 0.406580
1630.24, 0.406471
1630.75, 0.406525
1631.26, 0.406634
1631.78, 0.406907
1632.29, 0.407070
1632.8, 0.407070
1633.32, 0.407015
1633.83, 0.407124
1634.35, 0.406961
1634.86, 0.407233
1635.38, 0.407451
1635.9, 0.407288
1636.41, 0.407233
1636.93, 0.407451
1637.45, 0.407832
1637.96, 0.407778
1638.48, 0.407723
1639.0, 0.407941
1639.52, 0.408050
1640.04, 0.408050
1640.56, 0.407941
1641.08, 0.407941
1641.59, 0.408268
1642.11, 0.408540
1642.63, 0.408649
1643.16, 0.408268
1643.68, 0.408213
1644.2, 0.408268
1644.72, 0.408322
1645.24, 0.408377
1645.76, 0.408485
1646.29, 0.408866
1646.81, 0.408866
1647.33, 0.408866
1647.86, 0.408866
1648.38, 0.409030
1648.9, 0.409084
1649.43, 0.409030
1649.95, 0.409084
1650.48, 0.409084
1651.0, 0.409030
1651.53, 0.409084
1652.06, 0.409139
1652.58, 0.409193
1653.11, 0.409248
1653.64, 0.409465
1654.17, 0.409520
1654.69, 0.409520
1655.22, 0.409248
1655.75, 0.409302
1656.28, 0.409465
1656.81, 0.409683
1657.34, 0.409738
1657.87, 0.409955
1658.4, 0.409955
1658.93, 0.409955
1659.46, 0.410010
1659.99, 0.410064
1660.52, 0.410173
1661.05, 0.410228
1661.59, 0.410282
1662.12, 0.410336
1662.65, 0.410500
1663.19, 0.410609
1663.72, 0.410609
1664.26, 0.410772
1664.79, 0.410881
1665.32, 0.410772
1665.86, 0.410718
1666.39, 0.410990
1666.93, 0.411153
1667.47, 0.411153
1668.0, 0.411371
1668.54, 0.411534
1669.08, 0.411643
1669.61, 0.411643
1670.15, 0.411480
1670.69, 0.411698
1671.23, 0.411970
1671.77, 0.411915
1672.31, 0.412024
1672.85, 0.412296
1673.39, 0.412351
1673.93, 0.412188
1674.47, 0.412188
1675.01, 0.412405
1675.55, 0.412732
1676.09, 0.412786
1676.64, 0.412569
1677.18, 0.412623
1677.72, 0.412732
1678.26, 0.412841
1678.81, 0.413059
1679.35, 0.413113
1679.89, 0.413276
1680.44, 0.413549
1680.98, 0.413494
1681.53, 0.413331
1682.07, 0.413331
1682.62, 0.413549
1683.17, 0.413875
1683.71, 0.414039
1684.26, 0.413984
1684.81, 0.413712
1685.36, 0.413712
1685.9, 0.413875
1686.45, 0.413875
1687.0, 0.413821
1687.55, 0.413930
1688.1, 0.414202
1688.65, 0.414256
1689.2, 0.414365
1689.75, 0.414529
1690.3, 0.414583
1690.85, 0.414420
1691.41, 0.414692
1691.96, 0.415073
1692.51, 0.415182
1693.06, 0.415127
1693.61, 0.415073
1694.17, 0.415127
1694.72, 0.415127
1695.28, 0.415291
1695.83, 0.415400
1696.39, 0.415182
1696.94, 0.415073
1697.5, 0.415291
1698.05, 0.415345
1698.61, 0.415291
1699.17, 0.415454
1699.72, 0.415617
1700.28, 0.415672
1700.84, 0.415563
1701.4, 0.415617
1701.95, 0.415617
1702.51, 0.415509
1703.07, 0.415672
1703.63, 0.415944
1704.19, 0.415835
1704.75, 0.415835
1705.31, 0.415672
1705.88, 0.415672
1706.44, 0.415781
1707.0, 0.415781
1707.56, 0.415617
1708.12, 0.415726
1708.69, 0.415617
1709.25, 0.415563
1709.81, 0.415509
1710.38, 0.415454
1710.94, 0.415400
1711.51, 0.415726
1712.07, 0.415835
1712.64, 0.415835
1713.2, 0.415781
1713.77, 0.415672
1714.34, 0.415617
1714.9, 0.415509
1715.47, 0.415509
1716.04, 0.415835
1716.61, 0.415563
1717.18, 0.415509
1717.74, 0.415781
1718.31, 0.415672
1718.88, 0.415563
1719.45, 0.415454
1720.02, 0.415563
1720.59, 0.415563
1721.17, 0.415454
1721.74, 0.415454
1722.31, 0.415563
1722.88, 0.415563
1723.45, 0.415563
1724.03, 0.415454
1724.6, 0.415345
1725.18, 0.415509
1725.75, 0.415617
1726.33, 0.415563
1726.9, 0.415454
1727.48, 0.415509
1728.05, 0.415291
1728.63, 0.415345
1729.2, 0.415400
1729.78, 0.415182
1730.36, 0.415127
1730.94, 0.415345
1731.51, 0.415400
1732.09, 0.415563
1732.67, 0.415509
1733.25, 0.415291
1733.83, 0.415236
1734.41, 0.415345
1734.99, 0.415345
1735.57, 0.415291
1736.15, 0.415236
1736.73, 0.415182
1737.32, 0.415182
1737.9, 0.415182
1738.48, 0.414964
1739.07, 0.414910
1739.65, 0.415073
1740.23, 0.415291
1740.82, 0.415291
1741.4, 0.415454
1741.99, 0.415563
1742.57, 0.415509
1743.16, 0.415291
1743.74, 0.415345
1744.33, 0.415509
1744.92, 0.415454
1745.51, 0.415454
1746.09, 0.415617
1746.68, 0.415509
1747.27, 0.415454
1747.86, 0.415509
1748.45, 0.415454
1749.04, 0.415345
1749.63, 0.415236
1750.22, 0.415291
1750.81, 0.415454
1751.4, 0.415291
1751.99, 0.415127
1752.59, 0.415127
1753.18, 0.415400
1753.77, 0.415454
1754.37, 0.415400
1754.96, 0.415291
1755.56, 0.415236
1756.15, 0.415291
1756.74, 0.415400
1757.34, 0.415182
1757.94, 0.415127
1758.53, 0.415127
1759.13, 0.415073
1759.73, 0.415073
1760.32, 0.415127
1760.92, 0.415019
1761.52, 0.414910
1762.12, 0.414855
1762.72, 0.414855
1763.32, 0.414637
1763.92, 0.414637
1764.52, 0.414801
1765.12, 0.414692
1765.72, 0.414529
1766.32, 0.414583
1766.92, 0.414474
1767.53, 0.414311
1768.13, 0.414202
1768.73, 0.414256
1769.34, 0.414202
1769.94, 0.414039
1770.55, 0.413930
1771.15, 0.413821
1771.76, 0.413657
1772.36, 0.413657
1772.97, 0.413494
1773.57, 0.413385
1774.18, 0.413494
1774.79, 0.413603
1775.4, 0.413385
1776.0, 0.413167
1776.61, 0.413113
1777.22, 0.413167
1777.83, 0.412786
1778.44, 0.412569
1779.05, 0.412514
1779.66, 0.412569
1780.27, 0.412623
1780.88, 0.412460
1781.5, 0.412242
1782.11, 0.412079
1782.72, 0.411970
1783.33, 0.411915
1783.95, 0.411589
1784.56, 0.411208
1785.18, 0.410990
1785.79, 0.410935
1786.41, 0.410935
1787.02, 0.411044
1787.64, 0.410935
1788.26, 0.410663
1788.87, 0.410391
1789.49, 0.410336
1790.11, 0.410064
1790.73, 0.409846
1791.35, 0.409955
1791.96, 0.410010
1792.58, 0.409683
1793.21, 0.409411
1793.83, 0.409248
1794.45, 0.409139
1795.07, 0.409193
1795.69, 0.409248
1796.31, 0.408866
1796.93, 0.408866
1797.56, 0.408812
1798.18, 0.408758
1798.8, 0.408540
1799.43, 0.408485
1800.05, 0.408485
1800.68, 0.408431
1801.3, 0.408431
1801.93, 0.408377
1802.56, 0.408377
1803.18, 0.408377
1803.81, 0.408268
1804.44, 0.408213
1805.07, 0.408050
1805.7, 0.407995
1806.33, 0.408050
1806.95, 0.408104
1807.58, 0.408050
1808.22, 0.407941
1808.85, 0.407723
1809.48, 0.407669
1810.11, 0.407451
1810.74, 0.407397
1811.38, 0.407614
1812.01, 0.407941
1812.64, 0.407723
1813.28, 0.407723
1813.91, 0.407669
1814.55, 0.407397
1815.18, 0.407288
1815.82, 0.407342
1816.45, 0.407288
1817.09, 0.407669
1817.73, 0.407669
1818.36, 0.407614
1819.0, 0.407560
1819.64, 0.407015
1820.28, 0.406525
1820.92, 0.406743
1821.56, 0.406852
1822.2, 0.407124
1822.84, 0.407560
1823.48, 0.407778
1824.12, 0.407669
1824.76, 0.407451
1825.41, 0.406743
1826.05, 0.406253
1826.69, 0.407015
1827.34, 0.407505
1827.98, 0.407288
1828.63, 0.407397
1829.27, 0.407288
1829.92, 0.407397
1830.56, 0.407015
1831.21, 0.406798
1831.86, 0.406961
1832.5, 0.407015
1833.15, 0.407015
1833.8, 0.407070
1834.45, 0.406689
1835.1, 0.406471
1835.75, 0.405981
1836.4, 0.405709
1837.05, 0.405709
1837.7, 0.405328
1838.35, 0.405709
1839.01, 0.405545
1839.66, 0.404620
1840.31, 0.404729
1840.96, 0.404565
1841.62, 0.403803
1842.27, 0.404130
1842.93, 0.404838
1843.58, 0.405001
1844.24, 0.405110
1844.9, 0.405437
1845.55, 0.405654
1846.21, 0.404838
1846.87, 0.404130
1847.53, 0.404620
1848.18, 0.405219
1848.84, 0.406090
1849.5, 0.406689
1850.16, 0.407015
1850.82, 0.407397
1851.48, 0.407560
1852.14, 0.407451
1852.81, 0.406961
1853.47, 0.406362
1854.13, 0.406471
1854.8, 0.407560
1855.46, 0.407832
1856.12, 0.407070
1856.79, 0.406852
1857.45, 0.407397
1858.12, 0.407614
1858.79, 0.406961
1859.45, 0.405709
1860.12, 0.405927
1860.79, 0.406417
1861.46, 0.406471
1862.12, 0.406199
1862.79, 0.406035
1863.46, 0.405600
1864.13, 0.405110
1864.8, 0.405001
1865.48, 0.404892
1866.15, 0.404402
1866.82, 0.403313
1867.49, 0.401843
1868.16, 0.401626
1868.84, 0.401734
1869.51, 0.401081
1870.19, 0.399502
1870.86, 0.398087
1871.54, 0.398305
1872.21, 0.397379
1872.89, 0.395582
1873.56, 0.395256
1874.24, 0.394984
1874.92, 0.393840
1875.6, 0.392915
1876.28, 0.391445
1876.96, 0.389866
1877.64, 0.388995
1878.32, 0.387852
1879.0, 0.386599
1879.68, 0.385456
1880.36, 0.384149
