Database of Origin, USGS Spectral Database
Sample Description, See USGS database for additional info
Date Added,2016-08-10 05:12:42.707624

Data ID,USGS_mus01          
Sample ID, muscovite_cu93-1.14848
Mineral Name, muscovite
Material Class,Phyllosilicate

Wavelength
1489.7, 0.357600
1490.13, 0.357312
1490.56, 0.356736
1490.98, 0.357216
1491.41, 0.356256
1491.84, 0.357504
1492.27, 0.359328
1492.7, 0.358848
1493.13, 0.357984
1493.56, 0.357888
1493.99, 0.358752
1494.42, 0.357792
1494.85, 0.357984
1495.29, 0.358848
1495.72, 0.360096
1496.15, 0.359520
1496.58, 0.358464
1497.01, 0.359616
1497.44, 0.359904
1497.88, 0.358848
1498.31, 0.358848
1498.74, 0.359040
1499.18, 0.358464
1499.61, 0.359712
1500.04, 0.360192
1500.48, 0.360480
1500.91, 0.360384
1501.35, 0.359328
1501.78, 0.360480
1502.22, 0.361728
1502.65, 0.361728
1503.09, 0.359808
1503.53, 0.360288
1503.96, 0.361824
1504.4, 0.361536
1504.83, 0.362784
1505.27, 0.364512
1505.71, 0.364128
1506.15, 0.364224
1506.58, 0.364992
1507.02, 0.364896
1507.46, 0.364992
1507.9, 0.364896
1508.34, 0.364992
1508.78, 0.365280
1509.21, 0.365472
1509.66, 0.366240
1510.09, 0.367296
1510.53, 0.367968
1510.97, 0.367680
1511.42, 0.367392
1511.86, 0.367872
1512.3, 0.368928
1512.74, 0.369216
1513.18, 0.370176
1513.62, 0.371136
1514.06, 0.370752
1514.51, 0.369696
1514.95, 0.370080
1515.39, 0.371712
1515.83, 0.372288
1516.28, 0.372000
1516.72, 0.373152
1517.16, 0.374400
1517.61, 0.374688
1518.05, 0.375360
1518.5, 0.375456
1518.94, 0.375360
1519.39, 0.376320
1519.83, 0.378048
1520.28, 0.378912
1520.73, 0.377952
1521.17, 0.378336
1521.62, 0.379296
1522.07, 0.379584
1522.51, 0.379584
1522.96, 0.379872
1523.41, 0.380256
1523.85, 0.381696
1524.3, 0.382176
1524.75, 0.382848
1525.2, 0.383328
1525.65, 0.383616
1526.1, 0.383808
1526.55, 0.384960
1527.0, 0.385536
1527.45, 0.385728
1527.9, 0.386400
1528.35, 0.387552
1528.8, 0.388128
1529.25, 0.388224
1529.7, 0.388416
1530.15, 0.388992
1530.6, 0.390432
1531.05, 0.391008
1531.51, 0.391488
1531.96, 0.391296
1532.41, 0.390240
1532.87, 0.390336
1533.32, 0.391488
1533.77, 0.392832
1534.23, 0.394368
1534.68, 0.395712
1535.14, 0.396288
1535.59, 0.396768
1536.05, 0.396096
1536.5, 0.396192
1536.96, 0.396480
1537.41, 0.397728
1537.87, 0.398688
1538.32, 0.398880
1538.78, 0.398496
1539.24, 0.398880
1539.7, 0.399744
1540.15, 0.401568
1540.61, 0.402912
1541.07, 0.402816
1541.53, 0.402720
1541.98, 0.403776
1542.44, 0.404352
1542.9, 0.404832
1543.36, 0.405408
1543.82, 0.405504
1544.28, 0.405024
1544.74, 0.406464
1545.2, 0.407808
1545.66, 0.408000
1546.12, 0.407712
1546.59, 0.408288
1547.05, 0.409152
1547.51, 0.409824
1547.97, 0.410400
1548.43, 0.410592
1548.9, 0.411456
1549.36, 0.412896
1549.82, 0.413280
1550.29, 0.412992
1550.75, 0.412704
1551.21, 0.413376
1551.68, 0.414240
1552.14, 0.414720
1552.61, 0.415008
1553.07, 0.414720
1553.54, 0.414912
1554.0, 0.415968
1554.47, 0.416160
1554.93, 0.416544
1555.4, 0.416928
1555.87, 0.417312
1556.34, 0.417792
1556.8, 0.418944
1557.27, 0.419904
1557.74, 0.420480
1558.21, 0.420288
1558.68, 0.420672
1559.14, 0.420672
1559.61, 0.420864
1560.08, 0.421248
1560.55, 0.422496
1561.02, 0.422976
1561.49, 0.422496
1561.96, 0.423840
1562.43, 0.425472
1562.9, 0.425376
1563.38, 0.425472
1563.85, 0.426528
1564.32, 0.427200
1564.79, 0.426624
1565.26, 0.426816
1565.74, 0.428448
1566.21, 0.428928
1566.68, 0.428352
1567.16, 0.428352
1567.63, 0.428736
1568.1, 0.430080
1568.58, 0.430560
1569.05, 0.431328
1569.53, 0.431424
1570.0, 0.431424
1570.48, 0.431808
1570.96, 0.432384
1571.43, 0.432768
1571.91, 0.433248
1572.39, 0.433152
1572.86, 0.433440
1573.34, 0.433536
1573.82, 0.433728
1574.3, 0.434016
1574.77, 0.434976
1575.25, 0.435072
1575.73, 0.435456
1576.21, 0.436896
1576.69, 0.437472
1577.17, 0.437472
1577.65, 0.438240
1578.13, 0.438240
1578.61, 0.438432
1579.09, 0.438720
1579.57, 0.438720
1580.05, 0.438528
1580.54, 0.439488
1581.02, 0.439968
1581.5, 0.440352
1581.98, 0.441120
1582.47, 0.441696
1582.95, 0.441888
1583.43, 0.441888
1583.92, 0.441984
1584.4, 0.442656
1584.88, 0.443136
1585.37, 0.443424
1585.85, 0.443808
1586.34, 0.444768
1586.82, 0.445248
1587.31, 0.445632
1587.8, 0.445152
1588.28, 0.444960
1588.77, 0.445824
1589.26, 0.445440
1589.74, 0.445344
1590.23, 0.446784
1590.72, 0.447072
1591.21, 0.447168
1591.7, 0.447072
1592.19, 0.447552
1592.67, 0.448032
1593.16, 0.448800
1593.65, 0.448992
1594.14, 0.449088
1594.63, 0.449376
1595.12, 0.450048
1595.61, 0.450048
1596.11, 0.450528
1596.6, 0.450912
1597.09, 0.451104
1597.58, 0.451104
1598.08, 0.452064
1598.57, 0.452448
1599.06, 0.452064
1599.55, 0.451968
1600.05, 0.452640
1600.54, 0.453696
1601.04, 0.454080
1601.53, 0.453984
1602.03, 0.454368
1602.52, 0.454560
1603.02, 0.454464
1603.51, 0.454848
1604.01, 0.454752
1604.5, 0.454368
1605.0, 0.455232
1605.5, 0.455808
1606.0, 0.456384
1606.49, 0.456768
1606.99, 0.456672
1607.49, 0.456192
1607.99, 0.457248
1608.49, 0.457920
1608.99, 0.457056
1609.49, 0.456576
1609.99, 0.457824
1610.49, 0.458592
1610.99, 0.457920
1611.49, 0.457824
1611.99, 0.458880
1612.49, 0.459840
1612.99, 0.460800
1613.49, 0.460704
1614.0, 0.460800
1614.5, 0.460608
1615.0, 0.460320
1615.51, 0.460608
1616.01, 0.460992
1616.51, 0.461376
1617.02, 0.461376
1617.52, 0.461184
1618.03, 0.461856
1618.53, 0.462240
1619.04, 0.462624
1619.54, 0.462528
1620.05, 0.462816
1620.55, 0.463104
1621.06, 0.463296
1621.57, 0.462816
1622.08, 0.462528
1622.58, 0.462816
1623.09, 0.463680
1623.6, 0.464064
1624.11, 0.464256
1624.62, 0.464544
1625.13, 0.465408
1625.64, 0.465504
1626.15, 0.465120
1626.66, 0.464640
1627.17, 0.465120
1627.68, 0.465408
1628.19, 0.465888
1628.7, 0.465792
1629.21, 0.465984
1629.72, 0.465888
1630.24, 0.466176
1630.75, 0.466656
1631.26, 0.466944
1631.78, 0.466848
1632.29, 0.466848
1632.8, 0.466560
1633.32, 0.466560
1633.83, 0.466944
1634.35, 0.467424
1634.86, 0.467808
1635.38, 0.468192
1635.9, 0.468384
1636.41, 0.468384
1636.93, 0.468192
1637.45, 0.468864
1637.96, 0.469056
1638.48, 0.469152
1639.0, 0.469248
1639.52, 0.469440
1640.04, 0.469248
1640.56, 0.469248
1641.08, 0.469632
1641.59, 0.469920
1642.11, 0.470016
1642.63, 0.470112
1643.16, 0.469920
1643.68, 0.470016
1644.2, 0.470208
1644.72, 0.470496
1645.24, 0.470304
1645.76, 0.470784
1646.29, 0.471552
1646.81, 0.471456
1647.33, 0.471264
1647.86, 0.471744
1648.38, 0.472224
1648.9, 0.472320
1649.43, 0.471936
1649.95, 0.472032
1650.48, 0.472224
1651.0, 0.472416
1651.53, 0.472512
1652.06, 0.472800
1652.58, 0.473184
1653.11, 0.472992
1653.64, 0.472608
1654.17, 0.472512
1654.69, 0.473376
1655.22, 0.474240
1655.75, 0.474144
1656.28, 0.473952
1656.81, 0.473952
1657.34, 0.474624
1657.87, 0.475296
1658.4, 0.475488
1658.93, 0.475488
1659.46, 0.475584
1659.99, 0.475680
1660.52, 0.475296
1661.05, 0.475104
1661.59, 0.475584
1662.12, 0.475968
1662.65, 0.476544
1663.19, 0.477024
1663.72, 0.477216
1664.26, 0.476928
1664.79, 0.477024
1665.32, 0.477120
1665.86, 0.477312
1666.39, 0.477792
1666.93, 0.477792
1667.47, 0.477696
1668.0, 0.477696
1668.54, 0.477600
1669.08, 0.477888
1669.61, 0.478464
1670.15, 0.478752
1670.69, 0.478656
1671.23, 0.478944
1671.77, 0.478464
1672.31, 0.478368
1672.85, 0.479424
1673.39, 0.480000
1673.93, 0.480192
1674.47, 0.479712
1675.01, 0.479904
1675.55, 0.480384
1676.09, 0.479904
1676.64, 0.479520
1677.18, 0.479712
1677.72, 0.479904
1678.26, 0.480192
1678.81, 0.480384
1679.35, 0.480288
1679.89, 0.480576
1680.44, 0.480672
1680.98, 0.480480
1681.53, 0.480576
1682.07, 0.481152
1682.62, 0.481536
1683.17, 0.481728
1683.71, 0.481440
1684.26, 0.481920
1684.81, 0.482112
1685.36, 0.481920
1685.9, 0.481632
1686.45, 0.481920
1687.0, 0.482112
1687.55, 0.482208
1688.1, 0.482496
1688.65, 0.482688
1689.2, 0.482592
1689.75, 0.482592
1690.3, 0.482784
1690.85, 0.483168
1691.41, 0.482880
1691.96, 0.482784
1692.51, 0.482976
1693.06, 0.483456
1693.61, 0.483264
1694.17, 0.483456
1694.72, 0.483360
1695.28, 0.482976
1695.83, 0.483168
1696.39, 0.483744
1696.94, 0.483264
1697.5, 0.483264
1698.05, 0.483648
1698.61, 0.483744
1699.17, 0.483840
1699.72, 0.484032
1700.28, 0.483840
1700.84, 0.483648
1701.4, 0.483840
1701.95, 0.483456
1702.51, 0.483168
1703.07, 0.483936
1703.63, 0.484416
1704.19, 0.484800
1704.75, 0.484992
1705.31, 0.484800
1705.88, 0.484800
1706.44, 0.484992
1707.0, 0.485088
1707.56, 0.485472
1708.12, 0.485760
1708.69, 0.485280
1709.25, 0.485184
1709.81, 0.485472
1710.38, 0.484992
1710.94, 0.484896
1711.51, 0.485472
1712.07, 0.485568
1712.64, 0.485568
1713.2, 0.485664
1713.77, 0.485664
1714.34, 0.485472
1714.9, 0.486048
1715.47, 0.486528
1716.04, 0.486432
1716.61, 0.485664
1717.18, 0.485184
1717.74, 0.485760
1718.31, 0.485952
1718.88, 0.485472
1719.45, 0.485568
1720.02, 0.486048
1720.59, 0.486240
1721.17, 0.486144
1721.74, 0.486144
1722.31, 0.486528
1722.88, 0.486624
1723.45, 0.486336
1724.03, 0.486048
1724.6, 0.486240
1725.18, 0.486528
1725.75, 0.486720
1726.33, 0.486624
1726.9, 0.487008
1727.48, 0.487488
1728.05, 0.487680
1728.63, 0.487392
1729.2, 0.487008
1729.78, 0.486912
1730.36, 0.487392
1730.94, 0.487584
1731.51, 0.487584
1732.09, 0.487584
1732.67, 0.487392
1733.25, 0.487392
1733.83, 0.487680
1734.41, 0.487872
1734.99, 0.487968
1735.57, 0.487776
1736.15, 0.487872
1736.73, 0.488160
1737.32, 0.488160
1737.9, 0.488064
1738.48, 0.488064
1739.07, 0.488352
1739.65, 0.488832
1740.23, 0.488832
1740.82, 0.488544
1741.4, 0.488448
1741.99, 0.488544
1742.57, 0.488928
1743.16, 0.489024
1743.74, 0.488736
1744.33, 0.488832
1744.92, 0.489120
1745.51, 0.489408
1746.09, 0.490176
1746.68, 0.490368
1747.27, 0.489696
1747.86, 0.489408
1748.45, 0.489504
1749.04, 0.489696
1749.63, 0.489600
1750.22, 0.489792
1750.81, 0.489696
1751.4, 0.489888
1751.99, 0.489696
1752.59, 0.489408
1753.18, 0.489792
1753.77, 0.490464
1754.37, 0.490560
1754.96, 0.490272
1755.56, 0.490176
1756.15, 0.490176
1756.74, 0.490272
1757.34, 0.490656
1757.94, 0.490464
1758.53, 0.490560
1759.13, 0.490560
1759.73, 0.490560
1760.32, 0.490656
1760.92, 0.490848
1761.52, 0.490560
1762.12, 0.490176
1762.72, 0.490272
1763.32, 0.490464
1763.92, 0.490656
1764.52, 0.491232
1765.12, 0.490752
1765.72, 0.490560
1766.32, 0.490848
1766.92, 0.490944
1767.53, 0.490752
1768.13, 0.490848
1768.73, 0.491040
1769.34, 0.491232
1769.94, 0.491232
1770.55, 0.491040
1771.15, 0.490944
1771.76, 0.490944
1772.36, 0.491232
1772.97, 0.491232
1773.57, 0.490944
1774.18, 0.491328
1774.79, 0.491328
1775.4, 0.491328
1776.0, 0.491040
1776.61, 0.490848
1777.22, 0.490560
1777.83, 0.490752
1778.44, 0.490848
1779.05, 0.490944
1779.66, 0.490752
1780.27, 0.490848
1780.88, 0.491136
1781.5, 0.491136
1782.11, 0.491136
1782.72, 0.491232
1783.33, 0.491328
1783.95, 0.491232
1784.56, 0.490944
1785.18, 0.490944
1785.79, 0.490944
1786.41, 0.490944
1787.02, 0.490944
1787.64, 0.490848
1788.26, 0.490944
1788.87, 0.491040
1789.49, 0.491040
1790.11, 0.491040
1790.73, 0.491136
1791.35, 0.491424
1791.96, 0.490944
1792.58, 0.490944
1793.21, 0.491040
1793.83, 0.491040
1794.45, 0.491040
1795.07, 0.491040
1795.69, 0.491040
1796.31, 0.491328
1796.93, 0.490944
1797.56, 0.490752
1798.18, 0.491424
1798.8, 0.491808
1799.43, 0.491136
1800.05, 0.490848
1800.68, 0.491136
1801.3, 0.491232
1801.93, 0.491136
1802.56, 0.491232
1803.18, 0.491424
1803.81, 0.491808
1804.44, 0.491808
1805.07, 0.491520
1805.7, 0.491424
1806.33, 0.491712
1806.95, 0.491616
1807.58, 0.491712
1808.22, 0.491808
1808.85, 0.491424
1809.48, 0.491616
1810.11, 0.492000
1810.74, 0.491808
1811.38, 0.491712
1812.01, 0.492000
1812.64, 0.492192
1813.28, 0.492192
1813.91, 0.492096
1814.55, 0.492096
1815.18, 0.492192
1815.82, 0.492192
1816.45, 0.492192
1817.09, 0.492288
1817.73, 0.492096
1818.36, 0.492384
1819.0, 0.492480
1819.64, 0.492000
1820.28, 0.492000
1820.92, 0.492288
1821.56, 0.492480
1822.2, 0.492576
1822.84, 0.493056
1823.48, 0.493056
1824.12, 0.492864
1824.76, 0.492672
1825.41, 0.492384
1826.05, 0.491808
1826.69, 0.492480
1827.34, 0.493440
1827.98, 0.493440
1828.63, 0.492960
1829.27, 0.492960
1829.92, 0.492768
1830.56, 0.492672
1831.21, 0.492864
1831.86, 0.492864
1832.5, 0.492576
1833.15, 0.492768
1833.8, 0.493056
1834.45, 0.493248
1835.1, 0.492576
1835.75, 0.492096
1836.4, 0.492192
1837.05, 0.492384
1837.7, 0.492480
1838.35, 0.493056
1839.01, 0.492480
1839.66, 0.492000
1840.31, 0.492576
1840.96, 0.492480
1841.62, 0.491808
1842.27, 0.492000
1842.93, 0.492384
1843.58, 0.492576
1844.24, 0.492480
1844.9, 0.492480
1845.55, 0.492480
1846.21, 0.492192
1846.87, 0.491904
1847.53, 0.492000
1848.18, 0.491712
1848.84, 0.492000
1849.5, 0.492288
1850.16, 0.492576
1850.82, 0.492192
1851.48, 0.492288
1852.14, 0.492480
1852.81, 0.491904
1853.47, 0.491136
1854.13, 0.491136
1854.8, 0.491328
1855.46, 0.491040
1856.12, 0.490752
1856.79, 0.491136
1857.45, 0.491232
1858.12, 0.491232
1858.79, 0.491040
1859.45, 0.490464
1860.12, 0.490272
1860.79, 0.490656
1861.46, 0.490656
1862.12, 0.490368
1862.79, 0.490368
1863.46, 0.490176
1864.13, 0.490176
1864.8, 0.490080
1865.48, 0.489792
1866.15, 0.489504
1866.82, 0.489024
1867.49, 0.488640
1868.16, 0.488352
1868.84, 0.487968
1869.51, 0.487296
1870.19, 0.486624
1870.86, 0.486240
1871.54, 0.486240
1872.21, 0.485952
1872.89, 0.485184
1873.56, 0.484800
1874.24, 0.484512
1874.92, 0.483840
1875.6, 0.483456
1876.28, 0.482304
1876.96, 0.481152
1877.64, 0.480672
1878.32, 0.480192
1879.0, 0.479616
1879.68, 0.478944
1880.36, 0.477696
1881.04, 0.476256
1881.73, 0.475296
1882.41, 0.474720
1883.09, 0.473664
1883.78, 0.472224
1884.46, 0.471168
1885.15, 0.470112
1885.83, 0.468768
1886.52, 0.467328
1887.21, 0.465696
1887.89, 0.464448
1888.58, 0.463296
1889.27, 0.461568
1889.96, 0.459456
1890.65, 0.457824
1891.34, 0.456288
1892.03, 0.454848
1892.72, 0.453120
1893.41, 0.450720
1894.1, 0.448608
1894.79, 0.446784
1895.49, 0.444576
1896.18, 0.442560
1896.87, 0.440160
1897.57, 0.437760
1898.26, 0.435552
1898.96, 0.433440
1899.65, 0.431328
1900.35, 0.429408
1901.05, 0.427680
1901.74, 0.426144
1902.44, 0.424800
1903.14, 0.423552
1903.84, 0.422112
1904.54, 0.420672
1905.24, 0.419520
1905.94, 0.418944
1906.64, 0.418656
1907.34, 0.418272
1908.04, 0.417792
1908.75, 0.417888
1909.45, 0.417888
1910.15, 0.417792
1910.86, 0.417696
1911.56, 0.417600
1912.27, 0.417984
1912.97, 0.418368
1913.68, 0.418656
1914.39, 0.419520
1915.09, 0.420192
1915.8, 0.420672
1916.51, 0.421344
1917.22, 0.421920
1917.93, 0.422304
1918.64, 0.422976
1919.35, 0.423552
1920.06, 0.424128
1920.77, 0.424992
1921.48, 0.426144
1922.19, 0.426912
1922.91, 0.427680
1923.62, 0.428160
1924.33, 0.428832
1925.05, 0.429792
1925.76, 0.430464
1926.48, 0.430944
1927.19, 0.431136
1927.91, 0.431520
1928.63, 0.432288
1929.35, 0.433056
1930.07, 0.433920
1930.78, 0.434880
1931.5, 0.435456
1932.22, 0.435744
1932.94, 0.436128
1933.66, 0.436416
1934.39, 0.436992
1935.11, 0.437472
1935.83, 0.438048
1936.55, 0.438624
1937.28, 0.439008
1938.0, 0.439488
1938.73, 0.439680
1939.45, 0.440160
1940.18, 0.440736
1940.9, 0.440736
1941.63, 0.441024
1942.36, 0.441792
1943.09, 0.442272
1943.81, 0.442368
1944.54, 0.442464
1945.27, 0.442752
1946.0, 0.443136
1946.73, 0.443232
1947.47, 0.443520
1948.2, 0.443808
1948.93, 0.444192
1949.66, 0.444480
1950.4, 0.444672
1951.13, 0.444960
1951.86, 0.445248
1952.6, 0.445248
1953.34, 0.445248
1954.07, 0.445248
1954.81, 0.445728
1955.55, 0.446112
1956.29, 0.446496
1957.02, 0.446784
1957.76, 0.446592
1958.5, 0.446400
1959.24, 0.446592
1959.98, 0.446880
1960.72, 0.446880
1961.47, 0.447072
1962.21, 0.447360
1962.95, 0.447744
1963.7, 0.447840
1964.44, 0.447840
1965.18, 0.448032
1965.93, 0.448032
1966.67, 0.448128
1967.42, 0.448224
1968.17, 0.448512
1968.92, 0.448800
1969.66, 0.448608
1970.41, 0.448704
1971.16, 0.448896
1971.91, 0.449184
1972.66, 0.449376
1973.41, 0.449280
1974.16, 0.449280
1974.92, 0.449568
1975.67, 0.449856
1976.42, 0.449856
1977.18, 0.449952
1977.93, 0.450144
1978.69, 0.450336
1979.44, 0.450336
1980.2, 0.450144
1980.95, 0.450240
1981.71, 0.450624
1982.47, 0.450720
1983.23, 0.450816
1983.99, 0.450720
1984.74, 0.451008
1985.51, 0.451392
1986.27, 0.451488
1987.03, 0.451392
1987.79, 0.451488
1988.55, 0.451488
1989.32, 0.451680
1990.08, 0.451680
1990.84, 0.451872
1991.61, 0.451968
1992.37, 0.451872
1993.14, 0.452064
1993.9, 0.452160
1994.67, 0.452256
1995.44, 0.452256
1996.21, 0.452160
1996.98, 0.452448
1997.75, 0.452640
1998.52, 0.452736
1999.29, 0.453024
2000.06, 0.453312
2000.83, 0.453216
2001.6, 0.453408
2002.38, 0.453696
2003.15, 0.453888
2003.93, 0.453792
2004.7, 0.453888
2005.48, 0.453696
2006.25, 0.454080
2007.03, 0.454176
2007.81, 0.454464
2008.58, 0.454656
2009.36, 0.454752
2010.14, 0.454848
2010.92, 0.455232
2011.7, 0.455328
2012.48, 0.455616
2013.26, 0.455808
2014.05, 0.456000
2014.83, 0.456288
2015.61, 0.456672
2016.4, 0.456576
2017.18, 0.456576
2017.97, 0.456480
2018.75, 0.456864
2019.54, 0.457344
2020.32, 0.457344
2021.11, 0.457440
2021.9, 0.457920
2022.69, 0.458304
2023.48, 0.458592
2024.27, 0.458592
2025.06, 0.458592
2025.85, 0.458688
2026.64, 0.458784
2027.44, 0.458976
2028.23, 0.459264
2029.02, 0.459456
2029.82, 0.459552
2030.61, 0.459840
2031.41, 0.460224
2032.2, 0.460224
2033.0, 0.460224
2033.8, 0.460416
2034.6, 0.460704
2035.4, 0.461088
2036.2, 0.461088
2037.0, 0.460608
2037.8, 0.460704
2038.6, 0.460896
2039.4, 0.461088
2040.2, 0.461184
2041.01, 0.461472
2041.81, 0.461664
2042.61, 0.461856
2043.42, 0.461856
2044.22, 0.461760
2045.03, 0.461088
2045.84, 0.461184
2046.65, 0.461568
2047.46, 0.461760
2048.26, 0.461760
2049.07, 0.461664
2049.88, 0.461280
2050.69, 0.461376
2051.51, 0.461760
2052.32, 0.461856
2053.13, 0.461664
2053.94, 0.461568
2054.76, 0.461280
2055.57, 0.461568
2056.39, 0.461568
2057.2, 0.461280
2058.02, 0.460992
2058.84, 0.460608
2059.66, 0.460800
2060.48, 0.461280
2061.29, 0.460992
2062.11, 0.460704
2062.94, 0.460608
2063.76, 0.460512
2064.58, 0.460416
2065.4, 0.460320
2066.22, 0.459936
2067.05, 0.459744
2067.87, 0.459936
2068.7, 0.460128
2069.52, 0.459552
2070.35, 0.459552
2071.18, 0.459552
2072.0, 0.459264
2072.83, 0.458880
2073.66, 0.458592
2074.49, 0.458304
2075.32, 0.458112
2076.15, 0.458016
2076.98, 0.457824
2077.82, 0.457344
2078.65, 0.457056
2079.48, 0.456864
2080.32, 0.456864
2081.15, 0.456672
2081.99, 0.456096
2082.83, 0.455712
2083.66, 0.455712
2084.5, 0.455232
2085.34, 0.454752
2086.18, 0.454272
2087.02, 0.453888
2087.86, 0.453600
2088.7, 0.453216
2089.54, 0.452736
2090.39, 0.452352
2091.23, 0.451968
2092.07, 0.451680
2092.92, 0.451392
2093.76, 0.451008
2094.61, 0.450720
2095.45, 0.450528
2096.3, 0.450048
2097.15, 0.449472
2098.0, 0.448896
2098.85, 0.448416
2099.7, 0.448032
2100.55, 0.447552
2101.4, 0.447072
2102.25, 0.446880
2103.1, 0.446496
2103.96, 0.446016
2104.81, 0.445824
2105.67, 0.445440
2106.52, 0.444576
2107.38, 0.444192
2108.24, 0.444096
2109.09, 0.443808
2109.95, 0.443232
2110.81, 0.442944
2111.67, 0.442848
2112.53, 0.442752
2113.39, 0.442464
2114.25, 0.442080
2115.12, 0.441888
2115.98, 0.441792
2116.84, 0.441408
2117.71, 0.441312
2118.58, 0.441216
2119.44, 0.441216
2120.31, 0.441312
2121.18, 0.441504
2122.04, 0.440832
2122.91, 0.440640
2123.78, 0.440928
2124.65, 0.440736
2125.52, 0.440832
2126.4, 0.441216
2127.27, 0.441216
