Database of Origin, USGS Spectral Database
Sample Description, See USGS database for additional info
Date Added,2016-08-03 21:31:30.646839

Data ID,USGS_elb02          
Sample ID, elbaite_nmnh94217.7263
Mineral Name, elbaite
Material Class,Cyclosilicate

Wavelength
1384.66, 0.246649
1385.03, 0.246349
1385.4, 0.246469
1385.77, 0.246409
1386.14, 0.246289
1386.51, 0.246169
1386.88, 0.245749
1387.25, 0.245809
1387.62, 0.245509
1387.99, 0.245389
1388.36, 0.244848
1388.74, 0.244428
1389.11, 0.244608
1389.48, 0.244848
1389.85, 0.244248
1390.23, 0.243167
1390.6, 0.242687
1390.97, 0.242567
1391.35, 0.242026
1391.72, 0.241546
1392.09, 0.241546
1392.47, 0.241006
1392.84, 0.240525
1393.21, 0.240165
1393.59, 0.239985
1393.96, 0.240405
1394.34, 0.240645
1394.71, 0.240946
1395.09, 0.240525
1395.46, 0.240105
1395.84, 0.240405
1396.22, 0.240285
1396.59, 0.239384
1396.97, 0.238964
1397.35, 0.238424
1397.72, 0.237283
1398.1, 0.235842
1398.48, 0.234461
1398.85, 0.232780
1399.23, 0.230799
1399.61, 0.228577
1399.99, 0.226836
1400.37, 0.225635
1400.74, 0.224254
1401.12, 0.222753
1401.5, 0.221252
1401.88, 0.219871
1402.26, 0.218850
1402.64, 0.218070
1403.02, 0.217529
1403.4, 0.218190
1403.78, 0.219871
1404.16, 0.221552
1404.54, 0.223714
1404.92, 0.226536
1405.3, 0.228877
1405.68, 0.230678
1406.06, 0.232180
1406.44, 0.233560
1406.83, 0.234881
1407.21, 0.236022
1407.59, 0.236623
1407.97, 0.236983
1408.35, 0.237043
1408.74, 0.236983
1409.12, 0.236983
1409.5, 0.236923
1409.89, 0.236502
1410.27, 0.236382
1410.65, 0.236502
1411.04, 0.236442
1411.42, 0.235842
1411.81, 0.235302
1412.19, 0.235122
1412.58, 0.234881
1412.96, 0.234581
1413.35, 0.234281
1413.73, 0.233500
1414.12, 0.232720
1414.5, 0.231999
1414.89, 0.230979
1415.28, 0.229718
1415.66, 0.228937
1416.05, 0.228037
1416.44, 0.226416
1416.82, 0.224254
1417.21, 0.222453
1417.6, 0.220712
1417.98, 0.218610
1418.37, 0.216209
1418.76, 0.213567
1419.15, 0.211165
1419.54, 0.208403
1419.93, 0.205581
1420.32, 0.202999
1420.71, 0.200238
1421.09, 0.197836
1421.48, 0.195674
1421.88, 0.193273
1422.27, 0.190751
1422.66, 0.188770
1423.05, 0.187389
1423.44, 0.185828
1423.83, 0.184207
1424.22, 0.182886
1424.61, 0.182045
1425.0, 0.181565
1425.39, 0.180964
1425.78, 0.180064
1426.18, 0.179523
1426.57, 0.179283
1426.96, 0.178803
1427.36, 0.178563
1427.75, 0.178503
1428.14, 0.177902
1428.54, 0.177602
1428.93, 0.177842
1429.32, 0.178022
1429.72, 0.177962
1430.11, 0.178202
1430.51, 0.178383
1430.9, 0.178383
1431.3, 0.178503
1431.69, 0.179043
1432.09, 0.179703
1432.48, 0.180364
1432.88, 0.180724
1433.28, 0.181084
1433.67, 0.181265
1434.07, 0.181204
1434.46, 0.181385
1434.86, 0.181685
1435.26, 0.182345
1435.66, 0.182826
1436.05, 0.182766
1436.45, 0.183246
1436.85, 0.184207
1437.25, 0.185287
1437.65, 0.186188
1438.05, 0.187089
1438.44, 0.187989
1438.84, 0.189070
1439.24, 0.190451
1439.64, 0.191472
1440.04, 0.192732
1440.44, 0.194173
1440.84, 0.195614
1441.24, 0.197236
1441.65, 0.198797
1442.05, 0.200057
1442.45, 0.201318
1442.85, 0.202699
1443.25, 0.204320
1443.65, 0.205941
1444.05, 0.207623
1444.46, 0.209364
1444.86, 0.210925
1445.26, 0.212486
1445.67, 0.213447
1446.07, 0.214407
1446.47, 0.215968
1446.88, 0.217589
1447.28, 0.219030
1447.68, 0.220171
1448.09, 0.221252
1448.49, 0.222513
1448.9, 0.223714
1449.3, 0.224854
1449.71, 0.225455
1450.11, 0.226235
1450.52, 0.227076
1450.93, 0.227556
1451.33, 0.227616
1451.74, 0.228037
1452.14, 0.228637
1452.55, 0.228937
1452.96, 0.228877
1453.36, 0.228637
1453.77, 0.228577
1454.18, 0.228517
1454.59, 0.228277
1455.0, 0.227736
1455.41, 0.227496
1455.81, 0.227316
1456.22, 0.226836
1456.63, 0.226115
1457.04, 0.225575
1457.45, 0.225095
1457.86, 0.224734
1458.27, 0.224494
1458.68, 0.223654
1459.09, 0.222333
1459.5, 0.221132
1459.91, 0.220531
1460.32, 0.219631
1460.74, 0.218310
1461.15, 0.217109
1461.56, 0.216088
1461.97, 0.215128
1462.39, 0.213987
1462.8, 0.212846
1463.21, 0.211946
1463.62, 0.210985
1464.04, 0.209904
1464.45, 0.208944
1464.86, 0.208043
1465.28, 0.207142
1465.69, 0.206062
1466.11, 0.205401
1466.52, 0.204320
1466.94, 0.202999
1467.35, 0.202399
1467.77, 0.202279
1468.18, 0.201859
1468.6, 0.201258
1469.02, 0.200598
1469.43, 0.200358
1469.85, 0.200178
1470.27, 0.200057
1470.68, 0.200117
1471.1, 0.200478
1471.52, 0.200598
1471.94, 0.200298
1472.35, 0.200057
1472.77, 0.199997
1473.19, 0.200418
1473.61, 0.201138
1474.03, 0.201739
1474.45, 0.202159
1474.87, 0.202279
1475.29, 0.202579
1475.71, 0.202999
1476.13, 0.203540
1476.55, 0.204260
1476.97, 0.205161
1477.39, 0.205641
1477.81, 0.205641
1478.23, 0.206242
1478.65, 0.207262
1479.07, 0.207623
1479.5, 0.208043
1479.92, 0.208643
1480.34, 0.209304
1480.76, 0.210385
1481.19, 0.210985
1481.61, 0.211225
1482.03, 0.212006
1482.46, 0.212906
1482.88, 0.213567
1483.31, 0.214047
1483.73, 0.214768
1484.16, 0.215908
1484.58, 0.216929
1485.01, 0.217229
1485.43, 0.217890
1485.86, 0.218970
1486.28, 0.219751
1486.71, 0.220291
1487.14, 0.221012
1487.56, 0.221672
1487.99, 0.222693
1488.42, 0.223594
1488.84, 0.224254
1489.27, 0.224674
1489.7, 0.225215
1490.13, 0.225875
1490.56, 0.226476
1490.98, 0.227196
1491.41, 0.227917
1491.84, 0.228337
1492.27, 0.228877
1492.7, 0.229718
1493.13, 0.230378
1493.56, 0.230739
1493.99, 0.230739
1494.42, 0.230979
1494.85, 0.231999
1495.29, 0.232720
1495.72, 0.233200
1496.15, 0.233681
1496.58, 0.234401
1497.01, 0.234701
1497.44, 0.235001
1497.88, 0.235662
1498.31, 0.236082
1498.74, 0.236563
1499.18, 0.236923
1499.61, 0.237283
1500.04, 0.237583
1500.48, 0.237883
1500.91, 0.238424
1501.35, 0.238424
1501.78, 0.238844
1502.22, 0.239444
1502.65, 0.239805
1503.09, 0.240405
1503.53, 0.240765
1503.96, 0.240645
1504.4, 0.241006
1504.83, 0.241546
1505.27, 0.242026
1505.71, 0.242146
1506.15, 0.242266
1506.58, 0.242747
1507.02, 0.243467
1507.46, 0.243707
1507.9, 0.243587
1508.34, 0.243888
1508.78, 0.244368
1509.21, 0.244488
1509.66, 0.244608
1510.09, 0.244968
1510.53, 0.245268
1510.97, 0.245509
1511.42, 0.245629
1511.86, 0.245809
1512.3, 0.245929
1512.74, 0.246349
1513.18, 0.246649
1513.62, 0.246709
1514.06, 0.247190
1514.51, 0.247670
1514.95, 0.247790
1515.39, 0.247730
1515.83, 0.247850
1516.28, 0.248030
1516.72, 0.248150
1517.16, 0.248090
1517.61, 0.248271
1518.05, 0.248451
1518.5, 0.248571
1518.94, 0.248871
1519.39, 0.249051
1519.83, 0.249111
1520.28, 0.249171
1520.73, 0.249231
1521.17, 0.249351
1521.62, 0.249772
1522.07, 0.249832
1522.51, 0.249531
1522.96, 0.249832
1523.41, 0.250192
1523.85, 0.250192
1524.3, 0.250132
1524.75, 0.250432
1525.2, 0.250672
1525.65, 0.250612
1526.1, 0.250432
1526.55, 0.250732
1527.0, 0.251092
1527.45, 0.251153
1527.9, 0.251032
1528.35, 0.251153
1528.8, 0.251032
1529.25, 0.251032
1529.7, 0.251153
1530.15, 0.251153
1530.6, 0.251333
1531.05, 0.251393
1531.51, 0.251393
1531.96, 0.251993
1532.41, 0.252173
1532.87, 0.252353
1533.32, 0.252533
1533.77, 0.252473
1534.23, 0.252233
1534.68, 0.252293
1535.14, 0.252594
1535.59, 0.253014
1536.05, 0.253074
1536.5, 0.253074
1536.96, 0.253134
1537.41, 0.253194
1537.87, 0.253434
1538.32, 0.253434
1538.78, 0.253554
1539.24, 0.253674
1539.7, 0.253854
1540.15, 0.253974
1540.61, 0.253974
1541.07, 0.253974
1541.53, 0.254095
1541.98, 0.254455
1542.44, 0.254455
1542.9, 0.254275
1543.36, 0.254635
1543.82, 0.254935
1544.28, 0.254815
1544.74, 0.254695
1545.2, 0.254515
1545.66, 0.254635
1546.12, 0.254995
1546.59, 0.255055
1547.05, 0.254995
1547.51, 0.255175
1547.97, 0.255295
1548.43, 0.255415
1548.9, 0.255355
1549.36, 0.255716
1549.82, 0.255956
1550.29, 0.255956
1550.75, 0.255836
1551.21, 0.256016
1551.68, 0.256196
1552.14, 0.256316
1552.61, 0.256496
1553.07, 0.256556
1553.54, 0.256496
1554.0, 0.256376
1554.47, 0.256496
1554.93, 0.256496
1555.4, 0.256676
1555.87, 0.256916
1556.34, 0.256856
1556.8, 0.256796
1557.27, 0.256916
1557.74, 0.256977
1558.21, 0.257217
1558.68, 0.257517
1559.14, 0.257517
1559.61, 0.257577
1560.08, 0.257697
1560.55, 0.257697
1561.02, 0.257757
1561.49, 0.257697
1561.96, 0.257697
1562.43, 0.258117
1562.9, 0.258297
1563.38, 0.258357
1563.85, 0.258538
1564.32, 0.258538
1564.79, 0.258478
1565.26, 0.258538
1565.74, 0.258598
1566.21, 0.258418
1566.68, 0.258538
1567.16, 0.258898
1567.63, 0.258958
1568.1, 0.259018
1568.58, 0.259018
1569.05, 0.259018
1569.53, 0.259198
1570.0, 0.259558
1570.48, 0.259738
1570.96, 0.259618
1571.43, 0.259798
1571.91, 0.260039
1572.39, 0.259979
1572.86, 0.259979
1573.34, 0.260159
1573.82, 0.260159
1574.3, 0.259979
1574.77, 0.260099
1575.25, 0.260159
1575.73, 0.260399
1576.21, 0.260519
1576.69, 0.260279
1577.17, 0.260099
1577.65, 0.260459
1578.13, 0.260879
1578.61, 0.260879
1579.09, 0.260699
1579.57, 0.260759
1580.05, 0.260879
1580.54, 0.261059
1581.02, 0.261119
1581.5, 0.261300
1581.98, 0.261480
1582.47, 0.261360
1582.95, 0.261480
1583.43, 0.261540
1583.92, 0.261540
1584.4, 0.261720
1584.88, 0.261720
1585.37, 0.261840
1585.85, 0.262020
1586.34, 0.262020
1586.82, 0.261720
1587.31, 0.261720
1587.8, 0.261600
1588.28, 0.261780
1588.77, 0.262020
1589.26, 0.262260
1589.74, 0.262500
1590.23, 0.262380
1590.72, 0.262140
1591.21, 0.262200
1591.7, 0.262680
1592.19, 0.262861
1592.67, 0.262801
1593.16, 0.262560
1593.65, 0.262620
1594.14, 0.262981
1594.63, 0.263281
1595.12, 0.263281
1595.61, 0.263461
1596.11, 0.263581
1596.6, 0.263461
1597.09, 0.263521
1597.58, 0.263761
1598.08, 0.264061
1598.57, 0.264061
1599.06, 0.263821
1599.55, 0.263881
1600.05, 0.264121
1600.54, 0.264302
1601.04, 0.264542
1601.53, 0.264722
1602.03, 0.265082
1602.52, 0.265262
1603.02, 0.265262
1603.51, 0.265322
1604.01, 0.265442
1604.5, 0.265202
1605.0, 0.265202
1605.5, 0.265322
1606.0, 0.265442
1606.49, 0.265743
1606.99, 0.265983
1607.49, 0.266043
1607.99, 0.266043
1608.49, 0.266223
1608.99, 0.266403
1609.49, 0.266463
1609.99, 0.266283
1610.49, 0.266403
1610.99, 0.266703
1611.49, 0.266763
1611.99, 0.266943
1612.49, 0.267063
1612.99, 0.267184
1613.49, 0.267124
1614.0, 0.267063
1614.5, 0.267184
1615.0, 0.267604
1615.51, 0.267784
1616.01, 0.267904
1616.51, 0.267784
1617.02, 0.267904
1617.52, 0.267964
1618.03, 0.268024
1618.53, 0.268384
1619.04, 0.268384
1619.54, 0.268264
1620.05, 0.268324
1620.55, 0.268384
1621.06, 0.268444
1621.57, 0.268564
1622.08, 0.268564
1622.58, 0.268504
1623.09, 0.268625
1623.6, 0.268925
1624.11, 0.269045
1624.62, 0.268985
1625.13, 0.269045
1625.64, 0.269165
1626.15, 0.269465
1626.66, 0.269405
1627.17, 0.269405
1627.68, 0.269645
1628.19, 0.269645
1628.7, 0.269585
1629.21, 0.269465
1629.72, 0.269645
1630.24, 0.269885
1630.75, 0.270005
1631.26, 0.270005
1631.78, 0.270066
1632.29, 0.270066
1632.8, 0.270246
1633.32, 0.270366
1633.83, 0.270426
1634.35, 0.270546
1634.86, 0.270486
1635.38, 0.270846
1635.9, 0.271146
1636.41, 0.271086
1636.93, 0.271026
1637.45, 0.271206
1637.96, 0.271326
1638.48, 0.271146
1639.0, 0.270966
1639.52, 0.271146
1640.04, 0.271146
1640.56, 0.271326
1641.08, 0.271507
1641.59, 0.271687
1642.11, 0.271627
1642.63, 0.271507
1643.16, 0.271266
1643.68, 0.271567
1644.2, 0.271987
1644.72, 0.272167
1645.24, 0.272227
1645.76, 0.272347
1646.29, 0.272227
1646.81, 0.272167
1647.33, 0.272227
1647.86, 0.272167
1648.38, 0.272347
1648.9, 0.272647
1649.43, 0.272587
1649.95, 0.272407
1650.48, 0.272287
1651.0, 0.272467
1651.53, 0.272827
1652.06, 0.272948
1652.58, 0.272827
1653.11, 0.272827
1653.64, 0.273128
1654.17, 0.273368
1654.69, 0.273428
1655.22, 0.273248
1655.75, 0.273008
1656.28, 0.272948
1656.81, 0.273068
1657.34, 0.273188
1657.87, 0.273008
1658.4, 0.273008
1658.93, 0.273188
1659.46, 0.273188
1659.99, 0.273248
1660.52, 0.273368
1661.05, 0.273368
1661.59, 0.273308
1662.12, 0.273428
1662.65, 0.273608
1663.19, 0.273308
1663.72, 0.273428
1664.26, 0.273848
1664.79, 0.273908
1665.32, 0.273908
1665.86, 0.274268
1666.39, 0.274388
1666.93, 0.274388
1667.47, 0.274509
1668.0, 0.274689
1668.54, 0.274689
1669.08, 0.274749
1669.61, 0.274869
1670.15, 0.275109
1670.69, 0.275289
1671.23, 0.275229
1671.77, 0.275229
1672.31, 0.275229
1672.85, 0.275349
1673.39, 0.275589
1673.93, 0.275829
1674.47, 0.275950
1675.01, 0.275950
1675.55, 0.276130
1676.09, 0.276130
1676.64, 0.276250
1677.18, 0.276250
1677.72, 0.276370
1678.26, 0.276430
1678.81, 0.276670
1679.35, 0.276790
1679.89, 0.276790
1680.44, 0.276730
1680.98, 0.276790
1681.53, 0.277030
1682.07, 0.277210
1682.62, 0.277270
1683.17, 0.277331
1683.71, 0.277331
1684.26, 0.277391
1684.81, 0.277631
1685.36, 0.277631
1685.9, 0.277631
1686.45, 0.277811
1687.0, 0.277871
1687.55, 0.277871
1688.1, 0.278111
1688.65, 0.278351
1689.2, 0.278351
1689.75, 0.278471
1690.3, 0.278531
1690.85, 0.278531
1691.41, 0.278531
1691.96, 0.278591
1692.51, 0.278651
1693.06, 0.278772
1693.61, 0.278531
1694.17, 0.278591
1694.72, 0.279072
1695.28, 0.279192
1695.83, 0.279012
1696.39, 0.279132
1696.94, 0.279252
1697.5, 0.279252
1698.05, 0.279312
1698.61, 0.279672
1699.17, 0.279672
1699.72, 0.279672
1700.28, 0.279732
1700.84, 0.279852
1701.4, 0.279912
1701.95, 0.279792
1702.51, 0.279672
1703.07, 0.279972
1703.63, 0.280032
1704.19, 0.279792
1704.75, 0.279792
1705.31, 0.279972
1705.88, 0.280032
1706.44, 0.280032
1707.0, 0.280152
1707.56, 0.280333
1708.12, 0.280393
1708.69, 0.280573
1709.25, 0.280513
1709.81, 0.280573
1710.38, 0.280633
1710.94, 0.280633
1711.51, 0.280693
1712.07, 0.280693
1712.64, 0.280633
1713.2, 0.280693
1713.77, 0.280873
1714.34, 0.280993
1714.9, 0.280933
1715.47, 0.280993
1716.04, 0.281173
1716.61, 0.281173
1717.18, 0.281053
1717.74, 0.280993
1718.31, 0.280933
1718.88, 0.280993
1719.45, 0.281113
1720.02, 0.281173
1720.59, 0.281473
1721.17, 0.281413
1721.74, 0.281353
1722.31, 0.281473
1722.88, 0.281533
1723.45, 0.281593
1724.03, 0.281653
1724.6, 0.281533
1725.18, 0.281473
1725.75, 0.281593
1726.33, 0.281834
1726.9, 0.281954
1727.48, 0.281894
1728.05, 0.281954
1728.63, 0.282014
1729.2, 0.282074
1729.78, 0.282194
1730.36, 0.282254
1730.94, 0.282134
1731.51, 0.282254
1732.09, 0.282194
1732.67, 0.282014
1733.25, 0.282134
1733.83, 0.282254
1734.41, 0.282254
1734.99, 0.282254
1735.57, 0.282194
1736.15, 0.282374
1736.73, 0.282554
1737.32, 0.282734
1737.9, 0.282794
1738.48, 0.282854
1739.07, 0.282974
1739.65, 0.283215
1740.23, 0.282974
1740.82, 0.282794
1741.4, 0.283034
1741.99, 0.283034
1742.57, 0.283094
1743.16, 0.283155
1743.74, 0.283395
1744.33, 0.283635
1744.92, 0.283455
1745.51, 0.283335
1746.09, 0.283515
1746.68, 0.283635
1747.27, 0.283635
1747.86, 0.283815
1748.45, 0.283995
1749.04, 0.284175
1749.63, 0.284055
1750.22, 0.283995
1750.81, 0.284175
1751.4, 0.284415
1751.99, 0.284475
1752.59, 0.284475
1753.18, 0.284355
1753.77, 0.284355
1754.37, 0.284535
1754.96, 0.284716
1755.56, 0.284656
1756.15, 0.284716
1756.74, 0.284776
1757.34, 0.284896
1757.94, 0.285076
1758.53, 0.285016
1759.13, 0.284896
1759.73, 0.284956
1760.32, 0.285076
1760.92, 0.285316
1761.52, 0.285436
1762.12, 0.285676
1762.72, 0.285736
1763.32, 0.285736
1763.92, 0.285676
1764.52, 0.285796
1765.12, 0.285976
1765.72, 0.285976
1766.32, 0.285856
1766.92, 0.285976
1767.53, 0.286036
1768.13, 0.286097
1768.73, 0.286157
1769.34, 0.286277
1769.94, 0.286217
1770.55, 0.286277
1771.15, 0.286397
1771.76, 0.286397
1772.36, 0.286337
1772.97, 0.286217
1773.57, 0.286337
1774.18, 0.286517
1774.79, 0.286517
1775.4, 0.286337
1776.0, 0.286217
1776.61, 0.286277
1777.22, 0.286397
1777.83, 0.286337
1778.44, 0.286397
1779.05, 0.286517
1779.66, 0.286517
1780.27, 0.286517
1780.88, 0.286397
1781.5, 0.286217
1782.11, 0.285976
1782.72, 0.286097
1783.33, 0.286097
1783.95, 0.285916
1784.56, 0.285916
1785.18, 0.285916
1785.79, 0.285736
1786.41, 0.285616
1787.02, 0.285856
1787.64, 0.285976
1788.26, 0.285916
1788.87, 0.285856
1789.49, 0.285916
1790.11, 0.285796
1790.73, 0.285856
1791.35, 0.286097
1791.96, 0.286097
1792.58, 0.286157
1793.21, 0.286097
1793.83, 0.286036
1794.45, 0.286157
1795.07, 0.286277
1795.69, 0.286217
1796.31, 0.286337
1796.93, 0.286457
1797.56, 0.286457
1798.18, 0.286457
1798.8, 0.286397
1799.43, 0.286457
1800.05, 0.286397
1800.68, 0.286337
1801.3, 0.286277
1801.93, 0.286097
1802.56, 0.286337
1803.18, 0.286457
1803.81, 0.286337
1804.44, 0.286097
1805.07, 0.286097
1805.7, 0.286457
1806.33, 0.286577
1806.95, 0.286457
1807.58, 0.286517
1808.22, 0.286637
1808.85, 0.286577
1809.48, 0.286157
1810.11, 0.286217
1810.74, 0.286277
1811.38, 0.286157
1812.01, 0.285976
1812.64, 0.286097
1813.28, 0.286337
1813.91, 0.286217
1814.55, 0.286217
1815.18, 0.286457
1815.82, 0.286397
1816.45, 0.286157
1817.09, 0.286036
1817.73, 0.286277
1818.36, 0.286457
1819.0, 0.286277
1819.64, 0.286457
1820.28, 0.286637
1820.92, 0.286517
1821.56, 0.286757
1822.2, 0.286817
1822.84, 0.286637
1823.48, 0.286577
1824.12, 0.286757
1824.76, 0.287117
1825.41, 0.287598
1826.05, 0.287718
1826.69, 0.287538
1827.34, 0.287538
1827.98, 0.287898
1828.63, 0.287958
1829.27, 0.287838
1829.92, 0.288138
1830.56, 0.288378
1831.21, 0.288078
1831.86, 0.287778
1832.5, 0.288078
1833.15, 0.288258
1833.8, 0.288198
1834.45, 0.288378
1835.1, 0.288558
1835.75, 0.288678
1836.4, 0.288678
1837.05, 0.288558
1837.7, 0.288558
1838.35, 0.288138
1839.01, 0.288258
1839.66, 0.288858
1840.31, 0.288738
1840.96, 0.288798
1841.62, 0.289159
1842.27, 0.288798
1842.93, 0.288198
1843.58, 0.287898
1844.24, 0.287838
1844.9, 0.287838
1845.55, 0.287898
1846.21, 0.288258
1846.87, 0.288618
1847.53, 0.288438
1848.18, 0.288318
1848.84, 0.287838
1849.5, 0.287477
1850.16, 0.287538
1850.82, 0.287477
1851.48, 0.287237
1852.14, 0.287417
1852.81, 0.287718
1853.47, 0.288138
1854.13, 0.287778
1854.8, 0.286937
1855.46, 0.286997
1856.12, 0.287477
1856.79, 0.287598
1857.45, 0.287117
1858.12, 0.286577
1858.79, 0.286697
1859.45, 0.287417
1860.12, 0.287177
1860.79, 0.286757
1861.46, 0.286517
1862.12, 0.286337
1862.79, 0.286397
1863.46, 0.286517
1864.13, 0.286517
1864.8, 0.286397
1865.48, 0.286337
1866.15, 0.286397
1866.82, 0.286817
1867.49, 0.287538
1868.16, 0.287477
1868.84, 0.287297
1869.51, 0.287658
1870.19, 0.288378
1870.86, 0.288918
1871.54, 0.288438
1872.21, 0.288618
1872.89, 0.289519
1873.56, 0.289519
1874.24, 0.289339
1874.92, 0.289219
1875.6, 0.289279
1876.28, 0.289819
1876.96, 0.290239
1877.64, 0.290059
1878.32, 0.289939
1879.0, 0.289999
1879.68, 0.289879
1880.36, 0.289699
1881.04, 0.289879
1881.73, 0.289999
1882.41, 0.290239
1883.09, 0.290420
1883.78, 0.290480
1884.46, 0.290179
1885.15, 0.290119
1885.83, 0.290299
1886.52, 0.290420
1887.21, 0.290420
1887.89, 0.290299
1888.58, 0.289999
1889.27, 0.290059
1889.96, 0.290540
1890.65, 0.290720
1891.34, 0.290540
1892.03, 0.290480
1892.72, 0.290480
1893.41, 0.290720
1894.1, 0.290840
1894.79, 0.290720
1895.49, 0.290600
1896.18, 0.290420
1896.87, 0.290540
1897.57, 0.290780
1898.26, 0.290900
1898.96, 0.291380
1899.65, 0.291380
1900.35, 0.291140
1901.05, 0.291080
1901.74, 0.291080
1902.44, 0.291080
1903.14, 0.290900
1903.84, 0.290660
1904.54, 0.290960
1905.24, 0.291200
1905.94, 0.291020
1906.64, 0.291080
1907.34, 0.290600
1908.04, 0.290239
1908.75, 0.290179
1909.45, 0.289939
1910.15, 0.289759
1910.86, 0.289579
1911.56, 0.289339
1912.27, 0.289039
1912.97, 0.288798
1913.68, 0.288558
1914.39, 0.287958
1915.09, 0.287177
1915.8, 0.286277
1916.51, 0.285436
1917.22, 0.284535
1917.93, 0.283455
1918.64, 0.282314
