Database of Origin, USGS Spectral Database
Sample Description, See USGS database for additional info
Date Added,2016-08-10 05:37:11.497787

Data ID,USGS_ser01          
Sample ID, serpentine_hs318.20395
Mineral Name, serpentine
Material Class,Phyllosilicate

Wavelength
229.1, 0.0215260
236.1, 0.0259180
242.1, 0.0273500
248.1, 0.0266260
253.6, 0.0270110
258.6, 0.0283600
263.6, 0.0295160
268.6, 0.0313020
273.1, 0.0335690
277.1, 0.0373010
281.1, 0.0379210
285.1, 0.0398440
289.1, 0.0398950
293.1, 0.0423850
297.1, 0.0464970
301.1, 0.0469190
305.1, 0.0526510
309.1, 0.0565850
313.1, 0.0645960
317.1, 0.0695410
321.1, 0.0721090
325.1, 0.0732510
329.1, 0.0757050
333.1, 0.0779940
337.1, 0.0795330
341.1, 0.0803840
345.1, 0.0834950
349.1, 0.0865950
353.1, 0.0920970
357.1, 0.0964020
360.6, 0.0931680
363.6, 0.0958970
366.6, 0.0969200
369.6, 0.101530
372.6, 0.103078
375.6, 0.101844
378.6, 0.103578
381.1, 0.102594
383.1, 0.103869
385.1, 0.105407
387.1, 0.102219
389.1, 0.103389
391.1, 0.106242
393.1, 0.113259
395.1, 0.115401
397.1, 0.118370
399.1, 0.121739
401.1, 0.120720
403.1, 0.119170
405.1, 0.117551
407.1, 0.116127
409.1, 0.113305
411.1, 0.111624
412.8, 0.111021
415.8, 0.107126
418.8, 0.108650
421.8, 0.106234
424.8, 0.103898
427.8, 0.104332
430.8, 0.102189
433.8, 0.0990870
436.8, 0.0984210
439.8, 0.0986250
442.8, 0.0978050
445.8, 0.101096
448.8, 0.101344
451.3, 0.102648
453.3, 0.0993540
455.3, 0.101501
457.3, 0.102577
459.3, 0.101906
461.3, 0.103948
463.3, 0.104173
465.3, 0.107128
467.3, 0.111124
469.3, 0.116278
471.3, 0.122286
473.3, 0.127382
475.3, 0.130431
477.3, 0.139655
479.3, 0.143213
481.3, 0.145965
483.3, 0.146962
485.3, 0.149673
487.3, 0.149269
489.3, 0.152116
491.3, 0.153186
493.3, 0.154371
495.3, 0.156017
497.3, 0.156547
499.3, 0.155805
501.3, 0.157411
503.3, 0.160372
505.3, 0.161202
507.3, 0.163143
509.3, 0.165070
511.3, 0.166726
513.3, 0.169035
515.3, 0.169780
517.3, 0.171911
519.3, 0.171461
521.3, 0.173705
523.3, 0.173413
525.3, 0.177316
527.3, 0.178301
529.3, 0.180655
531.3, 0.182954
533.3, 0.182559
535.3, 0.184805
537.3, 0.186487
539.3, 0.185801
541.3, 0.187878
543.3, 0.187897
545.3, 0.186572
547.3, 0.186618
549.3, 0.190471
551.3, 0.189087
553.3, 0.187909
555.3, 0.190003
557.3, 0.187255
559.3, 0.187034
561.3, 0.188851
563.3, 0.187984
565.3, 0.187907
567.3, 0.186855
569.3, 0.189475
571.3, 0.187973
573.3, 0.187208
575.3, 0.189274
577.3, 0.188184
579.3, 0.187781
581.3, 0.189883
583.3, 0.186929
585.3, 0.187403
587.3, 0.187941
589.3, 0.190482
591.3, 0.189711
593.3, 0.186975
595.3, 0.187755
597.3, 0.187657
599.3, 0.187559
601.1, 0.186172
602.7, 0.184243
604.3, 0.187495
605.9, 0.184882
607.5, 0.181914
609.1, 0.184177
610.7, 0.185129
612.3, 0.186093
613.9, 0.184988
615.5, 0.185888
617.1, 0.186115
618.7, 0.181849
620.3, 0.182753
621.9, 0.180588
623.5, 0.182274
625.1, 0.180174
626.7, 0.182268
628.3, 0.182309
629.9, 0.177831
631.7, 0.180080
633.7, 0.180619
635.7, 0.177232
637.7, 0.178062
639.7, 0.177867
641.7, 0.176517
643.7, 0.176313
645.7, 0.175880
647.7, 0.177312
649.7, 0.175471
651.7, 0.174154
653.7, 0.176620
655.7, 0.176019
657.7, 0.175685
659.7, 0.174411
661.7, 0.175399
663.7, 0.177150
665.7, 0.176706
667.7, 0.177863
670.2, 0.176475
673.2, 0.178631
676.2, 0.180234
679.2, 0.180781
682.2, 0.180866
685.2, 0.181630
688.2, 0.181327
691.2, 0.182866
694.2, 0.183894
697.2, 0.182509
700.2, 0.185604
702.0, 0.184008
704.0, 0.184381
706.0, 0.185053
708.0, 0.185669
710.0, 0.186877
712.0, 0.187184
714.0, 0.186700
716.0, 0.187925
718.0, 0.185454
720.0, 0.187474
722.0, 0.188518
724.0, 0.186136
726.0, 0.188430
728.0, 0.187369
730.0, 0.187918
732.0, 0.186927
734.0, 0.188101
736.0, 0.188387
738.0, 0.188165
740.0, 0.188410
742.0, 0.185935
744.0, 0.189115
746.0, 0.188327
748.0, 0.185801
750.5, 0.186221
753.5, 0.186029
756.5, 0.186662
759.5, 0.187193
762.5, 0.186498
765.5, 0.188424
768.5, 0.187612
771.5, 0.189247
774.5, 0.186732
777.5, 0.188123
781.0, 0.189787
785.0, 0.190456
789.0, 0.188784
793.0, 0.190663
797.0, 0.190000
801.5, 0.190874
806.5, 0.188381
811.5, 0.191151
816.5, 0.189275
822.0, 0.187331
828.0, 0.187702
835.0, 0.184164
851.0, 0.187332
859.0, 0.185243
871.0, 0.184185
883.0, 0.178386
894.0, 0.175558
904.0, 0.172679
914.0, 0.173787
924.0, 0.169767
933.0, 0.170125
941.0, 0.166831
949.0, 0.164393
957.0, 0.160712
964.0, 0.166635
970.0, 0.161557
976.0, 0.162994
982.0, 0.162917
988.0, 0.163010
994.0, 0.163250
1000.0, 0.160341
1006.0, 0.162076
1012.0, 0.160165
1018.0, 0.156926
1023.5, 0.159959
1028.5, 0.161147
1033.5, 0.158734
1038.5, 0.156525
1043.5, 0.158700
1048.5, 0.157562
1053.5, 0.155891
1058.5, 0.155675
1063.5, 0.155595
1068.5, 0.155120
1073.5, 0.153533
1078.5, 0.154763
1083.5, 0.153949
1088.5, 0.153556
1093.5, 0.154737
1098.5, 0.154544
1103.5, 0.152152
1108.5, 0.152526
1113.5, 0.152760
1118.5, 0.153524
1123.5, 0.154618
1128.5, 0.152110
1133.5, 0.153409
1138.5, 0.153485
1143.5, 0.151651
1148.5, 0.152417
1153.5, 0.152127
1158.5, 0.151742
1163.5, 0.152224
1168.5, 0.153655
1173.5, 0.153082
1178.5, 0.151523
1183.5, 0.149955
1188.5, 0.152805
1193.5, 0.151527
1198.5, 0.153306
1203.5, 0.153732
1208.5, 0.151378
1213.5, 0.153104
1218.5, 0.154393
1223.5, 0.154781
1228.5, 0.152310
1233.5, 0.155190
1238.5, 0.155754
1243.5, 0.154353
1248.5, 0.155259
1253.5, 0.153792
1258.5, 0.154665
1263.5, 0.155335
1268.5, 0.156471
1273.5, 0.153145
1278.5, 0.150422
1283.5, 0.151360
1288.5, 0.151685
1293.5, 0.154116
1298.5, 0.154630
1303.5, 0.154708
1308.5, 0.155493
1313.5, 0.154840
1318.5, 0.156591
1323.5, 0.157154
1328.5, 0.155913
1333.5, 0.156404
1338.5, 0.155556
1343.5, 0.155302
1348.5, 0.154395
1353.5, 0.150576
1358.5, 0.141011
1363.5, 0.142555
1368.5, 0.147130
1373.5, 0.149875
1378.5, 0.149559
1383.5, 0.133585
1388.5, 0.0967400
1393.5, 0.0994470
1398.5, 0.0909640
1403.5, 0.104358
1408.5, 0.128384
1413.5, 0.138314
1418.5, 0.141725
1423.5, 0.138080
1428.5, 0.142291
1433.5, 0.146941
1438.5, 0.146484
1443.5, 0.148099
1448.5, 0.151257
1453.5, 0.149603
1458.5, 0.152349
1463.5, 0.152941
1468.5, 0.152387
1473.5, 0.154060
1478.5, 0.155331
1483.5, 0.154212
1488.5, 0.153359
1493.5, 0.155200
1498.5, 0.156002
1503.5, 0.156277
1508.5, 0.155016
1513.5, 0.154976
1518.5, 0.157531
1523.5, 0.156363
1528.5, 0.156708
1534.0, 0.154439
1540.0, 0.156240
1546.0, 0.155303
1552.0, 0.154635
1558.0, 0.157992
1564.0, 0.157072
1570.5, 0.155346
1577.5, 0.157264
1584.5, 0.157635
1591.5, 0.158062
1598.5, 0.155794
1605.5, 0.157045
1612.5, 0.157380
1619.5, 0.158563
1626.5, 0.156486
1633.5, 0.157295
1640.5, 0.156852
1647.5, 0.154980
1654.5, 0.155324
1661.5, 0.157326
1668.5, 0.157647
1676.0, 0.155900
1684.0, 0.151217
1692.0, 0.155336
1700.0, 0.157154
1708.0, 0.156423
1716.0, 0.154542
1724.0, 0.154408
1732.0, 0.156126
1740.0, 0.153169
1748.0, 0.154398
1756.0, 0.152072
1764.0, 0.152162
1772.0, 0.152851
1780.0, 0.151611
1788.0, 0.150010
1796.0, 0.152189
1805.0, 0.150499
1815.0, 0.149323
1825.0, 0.150155
1835.0, 0.148830
1845.0, 0.147841
1855.0, 0.146582
1865.0, 0.147372
1875.0, 0.144170
1885.0, 0.140754
1895.0, 0.135614
1905.0, 0.129553
1915.0, 0.123420
1925.0, 0.121765
1935.0, 0.119704
1945.0, 0.117488
1955.0, 0.117676
1965.0, 0.111864
1975.0, 0.113271
1985.0, 0.108334
1995.0, 0.114316
2005.0, 0.116395
2015.0, 0.116702
2025.0, 0.116480
2035.0, 0.123071
2045.0, 0.120694
2055.0, 0.130851
2065.0, 0.132648
2075.0, 0.129829
2085.0, 0.129694
2095.0, 0.123079
2105.0, 0.117787
2115.0, 0.119219
2125.0, 0.119888
2135.0, 0.118768
2145.0, 0.121629
2155.0, 0.123736
2165.0, 0.130887
2175.0, 0.131374
2185.0, 0.130170
2195.0, 0.131125
2205.0, 0.130042
2215.0, 0.128918
2225.0, 0.117075
2235.0, 0.105806
2245.0, 0.0905480
2255.0, 0.0885270
2265.0, 0.0810920
2275.0, 0.0664050
2285.0, 0.0662350
2295.0, 0.0622480
2305.0, 0.0531330
2315.0, 0.0498470
2325.0, 0.0465440
2335.0, 0.0448180
2345.0, 0.0488330
2355.0, 0.0707350
2365.0, 0.0721080
2375.0, 0.0626660
2386.0, 0.0654020
2400.0, 0.0624290
2418.0, 0.0596220
2440.0, 0.0538550
2466.0, 0.0581030
2496.0, 0.0493380
2528.0, 0.0470390
2560.0, 0.0518050
2592.0, 0.0580840
2624.0, 0.0693750
2656.0, 0.0599410
2688.0, 0.0397400
2720.0, 0.0190000
2752.0, 0.0321250
2784.0, 0.0239550
2816.0, 0.0166410
2848.0, 0.0216580
2880.0, 0.0258120
2912.0, 0.0160320
2944.0, 0.0172440
2976.0, 0.0225190
