Database of Origin, USGS Spectral Database
Sample Description, See USGS database for additional info
Date Added,2017-07-03 06:06:54.978509

Data ID,USGS_mag04          
Sample ID, magnetite_hs195.13189
Mineral Name, magnetite
Material Class,Oxide

Wavelength
1499.61, 0.0590790
1500.04, 0.0593830
1500.48, 0.0593550
1500.91, 0.0589130
1501.35, 0.0589130
1501.78, 0.0597420
1502.22, 0.0599070
1502.65, 0.0593550
1503.09, 0.0591340
1503.53, 0.0593550
1503.96, 0.0593280
1504.4, 0.0589960
1504.83, 0.0591340
1505.27, 0.0592720
1505.71, 0.0593000
1506.15, 0.0591340
1506.58, 0.0590790
1507.02, 0.0591340
1507.46, 0.0588310
1507.9, 0.0588580
1508.34, 0.0588580
1508.78, 0.0589960
1509.21, 0.0591340
1509.66, 0.0591900
1510.09, 0.0594100
1510.53, 0.0595760
1510.97, 0.0593830
1511.42, 0.0591900
1511.86, 0.0593000
1512.3, 0.0589410
1512.74, 0.0589960
1513.18, 0.0589130
1513.62, 0.0587480
1514.06, 0.0589410
1514.51, 0.0593550
1514.95, 0.0592170
1515.39, 0.0587480
1515.83, 0.0587750
1516.28, 0.0593550
1516.72, 0.0593550
1517.16, 0.0591340
1517.61, 0.0590240
1518.05, 0.0589690
1518.5, 0.0588030
1518.94, 0.0588310
1519.39, 0.0589410
1519.83, 0.0590240
1520.28, 0.0588860
1520.73, 0.0587480
1521.17, 0.0587200
1521.62, 0.0586370
1522.07, 0.0586100
1522.51, 0.0588030
1522.96, 0.0587200
1523.41, 0.0586370
1523.85, 0.0585820
1524.3, 0.0587200
1524.75, 0.0588860
1525.2, 0.0590520
1525.65, 0.0585270
1526.1, 0.0583340
1526.55, 0.0584990
1527.0, 0.0586370
1527.45, 0.0588580
1527.9, 0.0586650
1528.35, 0.0586930
1528.8, 0.0588580
1529.25, 0.0589410
1529.7, 0.0589960
1530.15, 0.0590520
1530.6, 0.0590240
1531.05, 0.0589130
1531.51, 0.0587200
1531.96, 0.0591070
1532.41, 0.0591900
1532.87, 0.0589960
1533.32, 0.0590240
1533.77, 0.0588310
1534.23, 0.0591900
1534.68, 0.0594660
1535.14, 0.0589410
1535.59, 0.0586650
1536.05, 0.0588030
1536.5, 0.0587750
1536.96, 0.0586930
1537.41, 0.0588310
1537.87, 0.0588860
1538.32, 0.0588580
1538.78, 0.0588310
1539.24, 0.0589410
1539.7, 0.0593000
1540.15, 0.0591620
1540.61, 0.0587750
1541.07, 0.0586100
1541.53, 0.0587480
1541.98, 0.0588860
1542.44, 0.0589690
1542.9, 0.0592170
1543.36, 0.0593830
1543.82, 0.0591340
1544.28, 0.0588860
1544.74, 0.0588030
1545.2, 0.0587200
1545.66, 0.0588580
1546.12, 0.0588860
1546.59, 0.0587200
1547.05, 0.0591620
1547.51, 0.0595480
1547.97, 0.0594100
1548.43, 0.0594380
1548.9, 0.0595760
1549.36, 0.0594660
1549.82, 0.0596310
1550.29, 0.0595210
1550.75, 0.0593830
1551.21, 0.0594660
1551.68, 0.0593550
1552.14, 0.0592720
1552.61, 0.0589960
1553.07, 0.0587750
1553.54, 0.0589130
1554.0, 0.0590520
1554.47, 0.0591070
1554.93, 0.0593550
1555.4, 0.0597420
1555.87, 0.0596310
1556.34, 0.0591340
1556.8, 0.0590240
1557.27, 0.0591900
1557.74, 0.0594380
1558.21, 0.0595480
1558.68, 0.0592720
1559.14, 0.0593550
1559.61, 0.0594930
1560.08, 0.0596040
1560.55, 0.0595760
1561.02, 0.0596310
1561.49, 0.0599630
1561.96, 0.0598250
1562.43, 0.0594660
1562.9, 0.0594660
1563.38, 0.0597140
1563.85, 0.0598520
1564.32, 0.0597140
1564.79, 0.0594930
1565.26, 0.0596040
1565.74, 0.0595480
1566.21, 0.0594100
1566.68, 0.0596860
1567.16, 0.0598800
1567.63, 0.0601560
1568.1, 0.0601830
1568.58, 0.0600450
1569.05, 0.0598800
1569.53, 0.0598520
1570.0, 0.0599630
1570.48, 0.0600450
1570.96, 0.0600180
1571.43, 0.0599630
1571.91, 0.0599350
1572.39, 0.0598800
1572.86, 0.0598520
1573.34, 0.0598800
1573.82, 0.0598800
1574.3, 0.0599900
1574.77, 0.0599630
1575.25, 0.0599630
1575.73, 0.0602390
1576.21, 0.0602390
1576.69, 0.0601280
1577.17, 0.0600730
1577.65, 0.0600730
1578.13, 0.0601560
1578.61, 0.0599900
1579.09, 0.0598520
1579.57, 0.0600450
1580.05, 0.0599900
1580.54, 0.0601280
1581.02, 0.0600180
1581.5, 0.0599900
1581.98, 0.0598250
1582.47, 0.0597970
1582.95, 0.0601010
1583.43, 0.0603770
1583.92, 0.0604590
1584.4, 0.0605700
1584.88, 0.0605700
1585.37, 0.0603490
1585.85, 0.0602940
1586.34, 0.0603490
1586.82, 0.0603490
1587.31, 0.0604590
1587.8, 0.0605970
1588.28, 0.0604590
1588.77, 0.0602660
1589.26, 0.0603490
1589.74, 0.0605420
1590.23, 0.0605700
1590.72, 0.0605150
1591.21, 0.0603490
1591.7, 0.0605150
1592.19, 0.0607080
1592.67, 0.0610120
1593.16, 0.0610940
1593.65, 0.0610670
1594.14, 0.0610670
1594.63, 0.0607910
1595.12, 0.0605700
1595.61, 0.0604320
1596.11, 0.0605150
1596.6, 0.0607080
1597.09, 0.0606250
1597.58, 0.0606530
1598.08, 0.0609010
1598.57, 0.0606800
1599.06, 0.0606250
1599.55, 0.0608740
1600.05, 0.0608180
1600.54, 0.0607630
1601.04, 0.0608460
1601.53, 0.0609010
1602.03, 0.0609560
1602.52, 0.0609010
1603.02, 0.0610390
1603.51, 0.0612050
1604.01, 0.0611500
1604.5, 0.0610940
1605.0, 0.0612600
1605.5, 0.0613430
1606.0, 0.0612600
1606.49, 0.0610390
1606.99, 0.0610940
1607.49, 0.0611770
1607.99, 0.0611500
1608.49, 0.0611770
1608.99, 0.0613980
1609.49, 0.0615640
1609.99, 0.0614260
1610.49, 0.0611770
1610.99, 0.0612050
1611.49, 0.0612880
1611.99, 0.0612050
1612.49, 0.0613430
1612.99, 0.0615090
1613.49, 0.0615090
1614.0, 0.0615360
1614.5, 0.0613700
1615.0, 0.0613430
1615.51, 0.0614810
1616.01, 0.0615360
1616.51, 0.0616470
1617.02, 0.0616470
1617.52, 0.0616190
1618.03, 0.0616740
1618.53, 0.0618120
1619.04, 0.0618670
1619.54, 0.0619500
1620.05, 0.0619780
1620.55, 0.0618950
1621.06, 0.0618670
1621.57, 0.0617290
1622.08, 0.0615640
1622.58, 0.0617290
1623.09, 0.0620880
1623.6, 0.0621710
1624.11, 0.0619230
1624.62, 0.0619230
1625.13, 0.0621710
1625.64, 0.0623370
1626.15, 0.0623370
1626.66, 0.0621990
1627.17, 0.0620880
1627.68, 0.0620880
1628.19, 0.0620880
1628.7, 0.0621430
1629.21, 0.0622820
1629.72, 0.0624470
1630.24, 0.0625300
1630.75, 0.0624470
1631.26, 0.0623640
1631.78, 0.0625580
1632.29, 0.0625580
1632.8, 0.0624750
1633.32, 0.0625020
1633.83, 0.0625850
1634.35, 0.0626680
1634.86, 0.0625020
1635.38, 0.0625020
1635.9, 0.0626680
1636.41, 0.0625020
1636.93, 0.0624750
1637.45, 0.0626960
1637.96, 0.0628340
1638.48, 0.0628340
1639.0, 0.0625850
1639.52, 0.0626680
1640.04, 0.0628060
1640.56, 0.0628340
1641.08, 0.0628610
1641.59, 0.0628340
1642.11, 0.0627230
1642.63, 0.0628060
1643.16, 0.0629440
1643.68, 0.0629440
1644.2, 0.0628610
1644.72, 0.0627510
1645.24, 0.0628340
1645.76, 0.0629440
1646.29, 0.0628060
1646.81, 0.0630820
1647.33, 0.0633310
1647.86, 0.0631650
1648.38, 0.0631650
1648.9, 0.0631370
1649.43, 0.0631650
1649.95, 0.0632200
1650.48, 0.0632480
1651.0, 0.0632200
1651.53, 0.0632200
1652.06, 0.0634130
1652.58, 0.0634410
1653.11, 0.0633580
1653.64, 0.0634130
1654.17, 0.0634960
1654.69, 0.0634690
1655.22, 0.0634690
1655.75, 0.0635510
1656.28, 0.0634690
1656.81, 0.0633030
1657.34, 0.0633860
1657.87, 0.0635510
1658.4, 0.0634690
1658.93, 0.0635790
1659.46, 0.0638000
1659.99, 0.0636890
1660.52, 0.0634690
1661.05, 0.0634410
1661.59, 0.0635240
1662.12, 0.0635790
1662.65, 0.0636070
1663.19, 0.0636340
1663.72, 0.0635510
1664.26, 0.0634130
1664.79, 0.0635510
1665.32, 0.0636620
1665.86, 0.0638000
1666.39, 0.0638550
1666.93, 0.0638280
1667.47, 0.0639100
1668.0, 0.0637720
1668.54, 0.0635790
1669.08, 0.0636340
1669.61, 0.0638550
1670.15, 0.0640760
1670.69, 0.0641310
1671.23, 0.0640760
1671.77, 0.0640480
1672.31, 0.0641310
1672.85, 0.0641590
1673.39, 0.0642140
1673.93, 0.0643240
1674.47, 0.0644070
1675.01, 0.0644070
1675.55, 0.0644620
1676.09, 0.0643520
1676.64, 0.0642420
1677.18, 0.0643520
1677.72, 0.0644900
1678.26, 0.0645450
1678.81, 0.0644900
1679.35, 0.0645450
1679.89, 0.0646280
1680.44, 0.0645730
1680.98, 0.0645180
1681.53, 0.0645180
1682.07, 0.0645450
1682.62, 0.0644900
1683.17, 0.0645450
1683.71, 0.0646280
1684.26, 0.0647660
1684.81, 0.0648210
1685.36, 0.0648490
1685.9, 0.0649870
1686.45, 0.0650420
1687.0, 0.0649040
1687.55, 0.0648490
1688.1, 0.0649870
1688.65, 0.0649590
1689.2, 0.0649040
1689.75, 0.0649590
1690.3, 0.0649320
1690.85, 0.0647390
1691.41, 0.0648490
1691.96, 0.0649870
1692.51, 0.0650700
1693.06, 0.0650700
1693.61, 0.0651250
1694.17, 0.0652080
1694.72, 0.0650970
1695.28, 0.0651800
1695.83, 0.0654290
1696.39, 0.0655390
1696.94, 0.0655670
1697.5, 0.0654560
1698.05, 0.0652350
1698.61, 0.0652630
1699.17, 0.0654290
1699.72, 0.0654560
1700.28, 0.0654290
1700.84, 0.0655390
1701.4, 0.0655390
1701.95, 0.0655390
1702.51, 0.0654840
1703.07, 0.0657050
1703.63, 0.0657880
1704.19, 0.0656220
1704.75, 0.0654840
1705.31, 0.0655940
1705.88, 0.0656220
1706.44, 0.0656500
1707.0, 0.0656770
1707.56, 0.0656770
1708.12, 0.0657050
1708.69, 0.0657880
1709.25, 0.0658430
1709.81, 0.0659810
1710.38, 0.0661190
1710.94, 0.0659810
1711.51, 0.0659260
1712.07, 0.0660080
1712.64, 0.0658700
1713.2, 0.0660360
1713.77, 0.0661190
1714.34, 0.0660640
1714.9, 0.0659260
1715.47, 0.0658980
1716.04, 0.0660640
1716.61, 0.0660360
1717.18, 0.0660640
1717.74, 0.0661740
1718.31, 0.0661470
1718.88, 0.0660080
1719.45, 0.0659810
1720.02, 0.0661740
1720.59, 0.0661740
1721.17, 0.0660640
1721.74, 0.0661740
1722.31, 0.0663120
1722.88, 0.0663950
1723.45, 0.0663400
1724.03, 0.0663400
1724.6, 0.0663950
1725.18, 0.0664230
1725.75, 0.0664780
1726.33, 0.0665330
1726.9, 0.0664780
1727.48, 0.0664500
1728.05, 0.0666160
1728.63, 0.0666160
1729.2, 0.0664230
1729.78, 0.0663670
1730.36, 0.0664500
1730.94, 0.0665050
1731.51, 0.0666430
1732.09, 0.0668920
1732.67, 0.0669200
1733.25, 0.0666990
1733.83, 0.0666710
1734.41, 0.0667540
1734.99, 0.0668090
1735.57, 0.0669470
1736.15, 0.0670300
1736.73, 0.0669200
1737.32, 0.0668370
1737.9, 0.0669750
1738.48, 0.0670580
1739.07, 0.0670020
1739.65, 0.0669200
1740.23, 0.0668920
1740.82, 0.0668090
1741.4, 0.0669470
1741.99, 0.0671680
1742.57, 0.0671960
1743.16, 0.0671400
1743.74, 0.0672780
1744.33, 0.0673340
1744.92, 0.0671130
1745.51, 0.0670020
1746.09, 0.0671680
1746.68, 0.0673060
1747.27, 0.0670850
1747.86, 0.0668920
1748.45, 0.0671130
1749.04, 0.0672780
1749.63, 0.0673340
1750.22, 0.0674720
1750.81, 0.0675270
1751.4, 0.0675270
1751.99, 0.0674990
1752.59, 0.0675820
1753.18, 0.0676650
1753.77, 0.0676930
1754.37, 0.0677200
1754.96, 0.0676650
1755.56, 0.0676370
1756.15, 0.0678310
1756.74, 0.0679130
1757.34, 0.0677480
1757.94, 0.0676650
1758.53, 0.0677750
1759.13, 0.0678580
1759.73, 0.0679690
1760.32, 0.0680510
1760.92, 0.0680510
1761.52, 0.0678860
1762.12, 0.0679410
1762.72, 0.0681070
1763.32, 0.0679690
1763.92, 0.0677750
1764.52, 0.0678860
1765.12, 0.0680510
1765.72, 0.0681620
1766.32, 0.0681620
1766.92, 0.0682450
1767.53, 0.0683270
1768.13, 0.0684100
1768.73, 0.0683550
1769.34, 0.0682450
1769.94, 0.0683270
1770.55, 0.0684380
1771.15, 0.0684660
1771.76, 0.0683000
1772.36, 0.0682450
1772.97, 0.0683550
1773.57, 0.0683550
1774.18, 0.0683000
1774.79, 0.0684930
1775.4, 0.0686310
1776.0, 0.0686040
1776.61, 0.0685760
1777.22, 0.0684930
1777.83, 0.0685480
1778.44, 0.0685760
1779.05, 0.0686310
1779.66, 0.0687140
1780.27, 0.0687420
1780.88, 0.0685760
1781.5, 0.0686040
1782.11, 0.0687690
1782.72, 0.0689070
1783.33, 0.0689350
1783.95, 0.0687970
1784.56, 0.0689070
1785.18, 0.0690730
1785.79, 0.0689900
1786.41, 0.0689620
1787.02, 0.0690180
1787.64, 0.0689900
1788.26, 0.0688800
1788.87, 0.0689900
1789.49, 0.0689900
1790.11, 0.0688240
1790.73, 0.0690180
1791.35, 0.0692390
1791.96, 0.0692390
1792.58, 0.0692940
1793.21, 0.0691830
1793.83, 0.0691560
1794.45, 0.0692390
1795.07, 0.0692940
1795.69, 0.0691830
1796.31, 0.0690730
1796.93, 0.0691830
1797.56, 0.0692110
1798.18, 0.0692110
1798.8, 0.0694040
1799.43, 0.0695420
1800.05, 0.0695420
1800.68, 0.0695420
1801.3, 0.0695420
1801.93, 0.0695970
1802.56, 0.0695970
1803.18, 0.0695700
1803.81, 0.0694870
1804.44, 0.0694590
1805.07, 0.0695700
1805.7, 0.0696530
1806.33, 0.0696250
1806.95, 0.0695970
1807.58, 0.0696250
1808.22, 0.0695150
1808.85, 0.0695420
1809.48, 0.0695150
1810.11, 0.0695700
1810.74, 0.0696800
1811.38, 0.0698460
1812.01, 0.0699290
1812.64, 0.0700120
1813.28, 0.0699840
1813.91, 0.0699290
1814.55, 0.0698460
1815.18, 0.0698460
1815.82, 0.0698180
1816.45, 0.0698730
1817.09, 0.0699560
1817.73, 0.0698180
1818.36, 0.0698730
1819.0, 0.0699290
1819.64, 0.0699560
1820.28, 0.0700940
1820.92, 0.0701500
1821.56, 0.0702050
1822.2, 0.0702880
1822.84, 0.0702880
1823.48, 0.0701500
1824.12, 0.0700940
1824.76, 0.0702320
1825.41, 0.0703150
1826.05, 0.0703700
1826.69, 0.0704530
1827.34, 0.0703980
1827.98, 0.0703430
1828.63, 0.0703700
1829.27, 0.0703430
1829.92, 0.0703700
1830.56, 0.0704810
1831.21, 0.0704260
1831.86, 0.0702880
1832.5, 0.0703700
1833.15, 0.0705910
1833.8, 0.0706460
1834.45, 0.0706740
1835.1, 0.0706460
1835.75, 0.0707020
1836.4, 0.0707290
1837.05, 0.0707570
1837.7, 0.0709230
1838.35, 0.0708400
1839.01, 0.0707020
1839.66, 0.0708670
1840.31, 0.0710050
1840.96, 0.0709500
1841.62, 0.0708950
1842.27, 0.0709230
1842.93, 0.0709230
1843.58, 0.0709230
1844.24, 0.0709780
1844.9, 0.0709780
1845.55, 0.0710330
1846.21, 0.0711160
1846.87, 0.0713640
1847.53, 0.0713090
1848.18, 0.0711160
1848.84, 0.0710330
1849.5, 0.0710880
1850.16, 0.0711990
1850.82, 0.0712810
1851.48, 0.0713640
1852.14, 0.0713920
1852.81, 0.0713640
1853.47, 0.0714470
1854.13, 0.0715300
1854.8, 0.0713370
1855.46, 0.0713370
1856.12, 0.0715020
1856.79, 0.0715570
1857.45, 0.0714750
1858.12, 0.0714190
1858.79, 0.0714750
1859.45, 0.0716960
1860.12, 0.0716680
1860.79, 0.0716400
1861.46, 0.0716680
1862.12, 0.0716400
1862.79, 0.0716960
1863.46, 0.0717780
1864.13, 0.0717230
1864.8, 0.0716400
1865.48, 0.0716680
1866.15, 0.0718060
1866.82, 0.0718890
1867.49, 0.0721100
1868.16, 0.0720820
1868.84, 0.0720270
1869.51, 0.0719440
1870.19, 0.0719440
1870.86, 0.0721100
1871.54, 0.0721650
1872.21, 0.0722750
1872.89, 0.0723860
1873.56, 0.0721370
1874.24, 0.0719990
1874.92, 0.0719990
1875.6, 0.0720270
1876.28, 0.0720820
1876.96, 0.0722200
1877.64, 0.0723030
1878.32, 0.0723310
1879.0, 0.0723310
1879.68, 0.0723030
1880.36, 0.0723030
1881.04, 0.0723030
1881.73, 0.0723310
1882.41, 0.0724130
1883.09, 0.0722750
1883.78, 0.0722480
1884.46, 0.0722750
1885.15, 0.0723030
1885.83, 0.0723580
1886.52, 0.0725240
1887.21, 0.0725790
1887.89, 0.0724690
1888.58, 0.0724130
1889.27, 0.0724960
1889.96, 0.0726340
1890.65, 0.0726340
1891.34, 0.0725510
1892.03, 0.0725240
1892.72, 0.0725240
1893.41, 0.0725240
1894.1, 0.0725790
1894.79, 0.0726890
1895.49, 0.0727720
1896.18, 0.0727720
1896.87, 0.0727450
1897.57, 0.0728830
1898.26, 0.0729100
1898.96, 0.0729380
1899.65, 0.0730480
1900.35, 0.0729380
1901.05, 0.0728000
1901.74, 0.0728550
1902.44, 0.0729100
1903.14, 0.0729380
1903.84, 0.0729100
1904.54, 0.0729930
1905.24, 0.0730480
1905.94, 0.0730210
1906.64, 0.0729650
1907.34, 0.0728830
1908.04, 0.0728000
1908.75, 0.0729100
1909.45, 0.0730480
1910.15, 0.0731030
1910.86, 0.0732970
1911.56, 0.0733800
1912.27, 0.0732690
1912.97, 0.0731590
1913.68, 0.0732140
1914.39, 0.0732690
1915.09, 0.0732690
1915.8, 0.0732970
1916.51, 0.0732970
1917.22, 0.0731860
1917.93, 0.0732140
1918.64, 0.0732140
1919.35, 0.0731590
1920.06, 0.0733520
1920.77, 0.0734620
1921.48, 0.0734900
1922.19, 0.0735730
1922.91, 0.0735730
1923.62, 0.0736280
1924.33, 0.0736280
1925.05, 0.0736560
1925.76, 0.0736830
1926.48, 0.0735450
1927.19, 0.0736280
1927.91, 0.0737660
1928.63, 0.0737660
1929.35, 0.0737940
1930.07, 0.0739040
1930.78, 0.0738490
1931.5, 0.0738210
1932.22, 0.0738490
1932.94, 0.0737940
1933.66, 0.0737660
1934.39, 0.0738210
1935.11, 0.0738490
1935.83, 0.0739870
1936.55, 0.0740700
1937.28, 0.0740700
1938.0, 0.0740420
1938.73, 0.0740700
1939.45, 0.0742080
1940.18, 0.0742080
1940.9, 0.0741250
1941.63, 0.0741800
1942.36, 0.0742080
1943.09, 0.0741250
1943.81, 0.0741530
1944.54, 0.0744010
1945.27, 0.0744010
1946.0, 0.0743180
1946.73, 0.0744290
1947.47, 0.0744290
1948.2, 0.0744560
1948.93, 0.0744290
1949.66, 0.0744290
1950.4, 0.0744010
1951.13, 0.0744290
1951.86, 0.0745110
1952.6, 0.0745390
1953.34, 0.0747320
1954.07, 0.0746770
1954.81, 0.0745940
1955.55, 0.0745940
1956.29, 0.0746490
1957.02, 0.0747050
1957.76, 0.0747320
1958.5, 0.0747600
1959.24, 0.0748700
1959.98, 0.0748980
1960.72, 0.0749530
1961.47, 0.0749810
1962.21, 0.0748430
1962.95, 0.0747880
1963.7, 0.0748150
1964.44, 0.0748150
1965.18, 0.0749260
1965.93, 0.0750910
1966.67, 0.0750360
1967.42, 0.0749260
1968.17, 0.0748700
1968.92, 0.0749260
1969.66, 0.0749260
1970.41, 0.0749530
1971.16, 0.0750360
1971.91, 0.0751740
1972.66, 0.0751460
1973.41, 0.0750640
1974.16, 0.0752020
1974.92, 0.0752020
1975.67, 0.0752020
1976.42, 0.0752840
1977.18, 0.0752840
1977.93, 0.0753120
1978.69, 0.0753950
1979.44, 0.0754220
1980.2, 0.0752570
1980.95, 0.0753120
1981.71, 0.0753950
1982.47, 0.0754500
1983.23, 0.0755330
1983.99, 0.0755610
1984.74, 0.0755330
1985.51, 0.0755610
1986.27, 0.0755610
1987.03, 0.0755610
1987.79, 0.0755610
1988.55, 0.0755050
1989.32, 0.0754500
1990.08, 0.0754500
1990.84, 0.0755330
1991.61, 0.0756710
1992.37, 0.0757540
1993.14, 0.0756430
1993.9, 0.0756710
1994.67, 0.0757810
1995.44, 0.0757810
1996.21, 0.0756990
1996.98, 0.0756990
1997.75, 0.0757540
1998.52, 0.0757810
1999.29, 0.0757810
2000.06, 0.0757810
2000.83, 0.0757810
2001.6, 0.0757540
2002.38, 0.0756430
2003.15, 0.0756710
2003.93, 0.0758370
2004.7, 0.0759470
2005.48, 0.0759750
2006.25, 0.0759750
2007.03, 0.0758370
2007.81, 0.0758370
2008.58, 0.0759470
2009.36, 0.0760020
2010.14, 0.0759750
2010.92, 0.0759750
2011.7, 0.0759750
2012.48, 0.0759750
2013.26, 0.0760300
2014.05, 0.0760020
2014.83, 0.0760850
2015.61, 0.0761950
2016.4, 0.0760570
2017.18, 0.0760850
2017.97, 0.0760850
2018.75, 0.0761950
2019.54, 0.0762780
2020.32, 0.0762780
2021.11, 0.0762510
2021.9, 0.0762780
2022.69, 0.0763060
2023.48, 0.0763060
2024.27, 0.0763340
2025.06, 0.0762780
2025.85, 0.0763340
2026.64, 0.0765540
2027.44, 0.0766100
2028.23, 0.0766100
2029.02, 0.0766370
2029.82, 0.0765820
2030.61, 0.0765820
2031.41, 0.0767200
2032.2, 0.0767480
2033.0, 0.0767480
2033.8, 0.0767480
2034.6, 0.0766920
2035.4, 0.0766650
2036.2, 0.0766100
2037.0, 0.0767750
2037.8, 0.0768580
2038.6, 0.0767750
2039.4, 0.0767750
2040.2, 0.0768580
2041.01, 0.0769410
2041.81, 0.0769680
2042.61, 0.0770790
2043.42, 0.0771070
2044.22, 0.0770510
2045.03, 0.0770510
2045.84, 0.0771070
2046.65, 0.0772720
2047.46, 0.0772450
2048.26, 0.0771890
2049.07, 0.0772450
2049.88, 0.0772720
2050.69, 0.0772450
2051.51, 0.0773000
2052.32, 0.0773550
2053.13, 0.0773550
2053.94, 0.0775210
2054.76, 0.0775760
2055.57, 0.0774930
2056.39, 0.0773550
2057.2, 0.0774100
2058.02, 0.0775480
2058.84, 0.0776590
2059.66, 0.0776310
2060.48, 0.0775210
2061.29, 0.0775210
2062.11, 0.0776030
2062.94, 0.0776030
2063.76, 0.0775210
2064.58, 0.0776030
2065.4, 0.0776860
2066.22, 0.0776590
2067.05, 0.0776030
2067.87, 0.0776590
2068.7, 0.0777410
2069.52, 0.0778240
2070.35, 0.0777410
2071.18, 0.0777690
2072.0, 0.0777690
2072.83, 0.0778520
2073.66, 0.0779350
2074.49, 0.0779350
2075.32, 0.0779620
2076.15, 0.0780180
2076.98, 0.0780450
2077.82, 0.0779620
2078.65, 0.0779900
2079.48, 0.0780180
2080.32, 0.0779900
2081.15, 0.0779620
2081.99, 0.0779620
2082.83, 0.0780180
2083.66, 0.0781280
2084.5, 0.0780730
2085.34, 0.0781280
2086.18, 0.0781560
2087.02, 0.0782940
2087.86, 0.0782380
2088.7, 0.0782660
2089.54, 0.0782660
2090.39, 0.0783210
2091.23, 0.0783490
2092.07, 0.0782660
2092.92, 0.0783490
2093.76, 0.0782940
2094.61, 0.0782110
2095.45, 0.0782940
2096.3, 0.0783490
2097.15, 0.0783760
2098.0, 0.0784870
2098.85, 0.0785420
2099.7, 0.0785700
2100.55, 0.0785420
2101.4, 0.0785140
2102.25, 0.0785700
