Database of Origin, USGS Spectral Database
Sample Description, See USGS database for additional info
Date Added,2016-08-10 05:24:47.105917

Data ID,USGS_pig02          
Sample ID, pigeonite_hs199.17856
Mineral Name, pigeonite
Material Class,Inosilicate

Wavelength
1602.52, 0.163339
1603.02, 0.163339
1603.51, 0.163278
1604.01, 0.163037
1604.5, 0.162736
1605.0, 0.162857
1605.5, 0.163399
1606.0, 0.163881
1606.49, 0.164001
1606.99, 0.164001
1607.49, 0.163941
1607.99, 0.164061
1608.49, 0.163941
1608.99, 0.163760
1609.49, 0.163640
1609.99, 0.164423
1610.49, 0.164784
1610.99, 0.164784
1611.49, 0.164904
1611.99, 0.164965
1612.49, 0.165266
1612.99, 0.165206
1613.49, 0.165386
1614.0, 0.165507
1614.5, 0.165507
1615.0, 0.165687
1615.51, 0.165748
1616.01, 0.165928
1616.51, 0.165808
1617.02, 0.165748
1617.52, 0.166169
1618.03, 0.166230
1618.53, 0.166470
1619.04, 0.167012
1619.54, 0.166350
1620.05, 0.166350
1620.55, 0.166952
1621.06, 0.166651
1621.57, 0.166892
1622.08, 0.166711
1622.58, 0.166591
1623.09, 0.167012
1623.6, 0.167675
1624.11, 0.167735
1624.62, 0.167434
1625.13, 0.167615
1625.64, 0.167856
1626.15, 0.168097
1626.66, 0.168157
1627.17, 0.168036
1627.68, 0.168398
1628.19, 0.168759
1628.7, 0.168578
1629.21, 0.168578
1629.72, 0.168759
1630.24, 0.168880
1630.75, 0.168639
1631.26, 0.168819
1631.78, 0.169301
1632.29, 0.169241
1632.8, 0.168940
1633.32, 0.168759
1633.83, 0.169361
1634.35, 0.170084
1634.86, 0.169903
1635.38, 0.169542
1635.9, 0.169723
1636.41, 0.169903
1636.93, 0.169542
1637.45, 0.169723
1637.96, 0.170265
1638.48, 0.170325
1639.0, 0.169903
1639.52, 0.170084
1640.04, 0.169964
1640.56, 0.169663
1641.08, 0.169783
1641.59, 0.169903
1642.11, 0.170205
1642.63, 0.170747
1643.16, 0.170927
1643.68, 0.171048
1644.2, 0.170988
1644.72, 0.171108
1645.24, 0.170988
1645.76, 0.171048
1646.29, 0.171168
1646.81, 0.171530
1647.33, 0.171108
1647.86, 0.171108
1648.38, 0.171289
1648.9, 0.171530
1649.43, 0.171650
1649.95, 0.171469
1650.48, 0.171469
1651.0, 0.171710
1651.53, 0.172072
1652.06, 0.172072
1652.58, 0.171710
1653.11, 0.171168
1653.64, 0.171650
1654.17, 0.172132
1654.69, 0.171831
1655.22, 0.171590
1655.75, 0.171530
1656.28, 0.171770
1656.81, 0.172373
1657.34, 0.172553
1657.87, 0.172192
1658.4, 0.172011
1658.93, 0.172252
1659.46, 0.172433
1659.99, 0.172433
1660.52, 0.172313
1661.05, 0.172252
1661.59, 0.172614
1662.12, 0.172855
1662.65, 0.172734
1663.19, 0.172614
1663.72, 0.172614
1664.26, 0.172132
1664.79, 0.172252
1665.32, 0.172855
1665.86, 0.173336
1666.39, 0.173397
1666.93, 0.173457
1667.47, 0.173638
1668.0, 0.173577
1668.54, 0.173397
1669.08, 0.173156
1669.61, 0.173397
1670.15, 0.173698
1670.69, 0.173517
1671.23, 0.173698
1671.77, 0.173577
1672.31, 0.173095
1672.85, 0.173156
1673.39, 0.173397
1673.93, 0.173878
1674.47, 0.174059
1675.01, 0.173758
1675.55, 0.173397
1676.09, 0.173818
1676.64, 0.174421
1677.18, 0.174180
1677.72, 0.173999
1678.26, 0.174300
1678.81, 0.174722
1679.35, 0.174601
1679.89, 0.174240
1680.44, 0.173999
1680.98, 0.174119
1681.53, 0.174421
1682.07, 0.174421
1682.62, 0.174481
1683.17, 0.174782
1683.71, 0.175143
1684.26, 0.175023
1684.81, 0.175083
1685.36, 0.175203
1685.9, 0.175264
1686.45, 0.174902
1687.0, 0.174782
1687.55, 0.174963
1688.1, 0.175565
1688.65, 0.175565
1689.2, 0.174842
1689.75, 0.174481
1690.3, 0.174481
1690.85, 0.174842
1691.41, 0.174963
1691.96, 0.175505
1692.51, 0.175806
1693.06, 0.175685
1693.61, 0.175866
1694.17, 0.176167
1694.72, 0.175746
1695.28, 0.175324
1695.83, 0.175565
1696.39, 0.175746
1696.94, 0.176047
1697.5, 0.176167
1698.05, 0.175866
1698.61, 0.175806
1699.17, 0.175806
1699.72, 0.175806
1700.28, 0.175806
1700.84, 0.175866
1701.4, 0.175986
1701.95, 0.176047
1702.51, 0.176227
1703.07, 0.176047
1703.63, 0.175685
1704.19, 0.175685
1704.75, 0.175866
1705.31, 0.176288
1705.88, 0.176348
1706.44, 0.175986
1707.0, 0.175986
1707.56, 0.175806
1708.12, 0.175625
1708.69, 0.176047
1709.25, 0.176468
1709.81, 0.176589
1710.38, 0.176528
1710.94, 0.176528
1711.51, 0.176468
1712.07, 0.176709
1712.64, 0.176709
1713.2, 0.176468
1713.77, 0.176769
1714.34, 0.177071
1714.9, 0.177131
1715.47, 0.176769
1716.04, 0.176528
1716.61, 0.176528
1717.18, 0.176528
1717.74, 0.176769
1718.31, 0.176890
1718.88, 0.176769
1719.45, 0.176769
1720.02, 0.176950
1720.59, 0.176830
1721.17, 0.176528
1721.74, 0.176649
1722.31, 0.176709
1722.88, 0.176769
1723.45, 0.177010
1724.03, 0.176830
1724.6, 0.176890
1725.18, 0.176769
1725.75, 0.176348
1726.33, 0.176288
1726.9, 0.176589
1727.48, 0.177010
1728.05, 0.177071
1728.63, 0.177010
1729.2, 0.176890
1729.78, 0.177131
1730.36, 0.177191
1730.94, 0.177311
1731.51, 0.177191
1732.09, 0.177311
1732.67, 0.177311
1733.25, 0.177251
1733.83, 0.177010
1734.41, 0.177251
1734.99, 0.177372
1735.57, 0.177071
1736.15, 0.177010
1736.73, 0.177071
1737.32, 0.176950
1737.9, 0.177191
1738.48, 0.177552
1739.07, 0.177733
1739.65, 0.178155
1740.23, 0.177552
1740.82, 0.177131
1741.4, 0.177552
1741.99, 0.177372
1742.57, 0.177131
1743.16, 0.177191
1743.74, 0.177191
1744.33, 0.177010
1744.92, 0.177251
1745.51, 0.177372
1746.09, 0.177372
1746.68, 0.177311
1747.27, 0.177432
1747.86, 0.177492
1748.45, 0.177552
1749.04, 0.177733
1749.63, 0.177854
1750.22, 0.177974
1750.81, 0.177733
1751.4, 0.177191
1751.99, 0.177191
1752.59, 0.177432
1753.18, 0.177733
1753.77, 0.177733
1754.37, 0.177673
1754.96, 0.177793
1755.56, 0.177854
1756.15, 0.177492
1756.74, 0.177372
1757.34, 0.177793
1757.94, 0.177613
1758.53, 0.177613
1759.13, 0.177974
1759.73, 0.177974
1760.32, 0.177552
1760.92, 0.177372
1761.52, 0.177372
1762.12, 0.177552
1762.72, 0.177914
1763.32, 0.177793
1763.92, 0.177793
1764.52, 0.177793
1765.12, 0.177613
1765.72, 0.177733
1766.32, 0.177914
1766.92, 0.177854
1767.53, 0.177673
1768.13, 0.177432
1768.73, 0.177492
1769.34, 0.177613
1769.94, 0.177552
1770.55, 0.177613
1771.15, 0.177793
1771.76, 0.177854
1772.36, 0.177974
1772.97, 0.177974
1773.57, 0.177673
1774.18, 0.177793
1774.79, 0.177914
1775.4, 0.177854
1776.0, 0.177673
1776.61, 0.177673
1777.22, 0.177854
1777.83, 0.177854
1778.44, 0.177613
1779.05, 0.177613
1779.66, 0.177733
1780.27, 0.177793
1780.88, 0.177673
1781.5, 0.177854
1782.11, 0.178034
1782.72, 0.177854
1783.33, 0.177854
1783.95, 0.177793
1784.56, 0.177613
1785.18, 0.177552
1785.79, 0.177492
1786.41, 0.177613
1787.02, 0.177854
1787.64, 0.177733
1788.26, 0.177854
1788.87, 0.178094
1789.49, 0.177793
1790.11, 0.177613
1790.73, 0.177974
1791.35, 0.178034
1791.96, 0.177733
1792.58, 0.177733
1793.21, 0.177854
1793.83, 0.177673
1794.45, 0.177673
1795.07, 0.177854
1795.69, 0.177552
1796.31, 0.177372
1796.93, 0.177492
1797.56, 0.177673
1798.18, 0.177793
1798.8, 0.177793
1799.43, 0.177733
1800.05, 0.177854
1800.68, 0.177974
1801.3, 0.177914
1801.93, 0.177854
1802.56, 0.177673
1803.18, 0.177733
1803.81, 0.177733
1804.44, 0.177492
1805.07, 0.177492
1805.7, 0.177673
1806.33, 0.178034
1806.95, 0.177974
1807.58, 0.177673
1808.22, 0.177673
1808.85, 0.177733
1809.48, 0.177793
1810.11, 0.177793
1810.74, 0.177673
1811.38, 0.177552
1812.01, 0.177492
1812.64, 0.177492
1813.28, 0.177673
1813.91, 0.177914
1814.55, 0.177914
1815.18, 0.177733
1815.82, 0.177673
1816.45, 0.177673
1817.09, 0.177673
1817.73, 0.177854
1818.36, 0.177793
1819.0, 0.177492
1819.64, 0.177251
1820.28, 0.177432
1820.92, 0.177854
1821.56, 0.177613
1822.2, 0.177251
1822.84, 0.177191
1823.48, 0.177552
1824.12, 0.177854
1824.76, 0.177793
1825.41, 0.177673
1826.05, 0.177733
1826.69, 0.177733
1827.34, 0.177733
1827.98, 0.177673
1828.63, 0.177793
1829.27, 0.177733
1829.92, 0.177251
1830.56, 0.177432
1831.21, 0.177793
1831.86, 0.177854
1832.5, 0.177793
1833.15, 0.177552
1833.8, 0.177492
1834.45, 0.177793
1835.1, 0.178034
1835.75, 0.177854
1836.4, 0.177552
1837.05, 0.177974
1837.7, 0.178275
1838.35, 0.177733
1839.01, 0.177251
1839.66, 0.177372
1840.31, 0.177311
1840.96, 0.177372
1841.62, 0.177914
1842.27, 0.178034
1842.93, 0.177613
1843.58, 0.177492
1844.24, 0.177372
1844.9, 0.177311
1845.55, 0.177191
1846.21, 0.176950
1846.87, 0.177311
1847.53, 0.177372
1848.18, 0.177251
1848.84, 0.177251
1849.5, 0.177131
1850.16, 0.177010
1850.82, 0.177191
1851.48, 0.177251
1852.14, 0.177432
1852.81, 0.177251
1853.47, 0.177191
1854.13, 0.177432
1854.8, 0.177613
1855.46, 0.177733
1856.12, 0.177552
1856.79, 0.177372
1857.45, 0.177010
1858.12, 0.176830
1858.79, 0.177131
1859.45, 0.177251
1860.12, 0.177010
1860.79, 0.177010
1861.46, 0.177071
1862.12, 0.177071
1862.79, 0.177010
1863.46, 0.176709
1864.13, 0.176769
1864.8, 0.177131
1865.48, 0.177131
1866.15, 0.176950
1866.82, 0.176890
1867.49, 0.177131
1868.16, 0.177191
1868.84, 0.176950
1869.51, 0.176830
1870.19, 0.176950
1870.86, 0.177191
1871.54, 0.177071
1872.21, 0.176890
1872.89, 0.177071
1873.56, 0.177372
1874.24, 0.177251
1874.92, 0.177071
1875.6, 0.177071
1876.28, 0.177071
1876.96, 0.177010
1877.64, 0.176649
1878.32, 0.176589
1879.0, 0.176649
1879.68, 0.176709
1880.36, 0.176468
1881.04, 0.176468
1881.73, 0.176528
1882.41, 0.176408
1883.09, 0.176468
1883.78, 0.176769
1884.46, 0.176649
1885.15, 0.176408
1885.83, 0.176528
1886.52, 0.176468
1887.21, 0.176107
1887.89, 0.175926
1888.58, 0.175986
1889.27, 0.176047
1889.96, 0.176288
1890.65, 0.176227
1891.34, 0.176107
1892.03, 0.175806
1892.72, 0.175505
1893.41, 0.175625
1894.1, 0.175866
1894.79, 0.175986
1895.49, 0.175806
1896.18, 0.175685
1896.87, 0.175625
1897.57, 0.175505
1898.26, 0.175384
1898.96, 0.175444
1899.65, 0.175746
1900.35, 0.175444
1901.05, 0.175143
1901.74, 0.175143
1902.44, 0.175264
1903.14, 0.175264
1903.84, 0.175143
1904.54, 0.174902
1905.24, 0.174722
1905.94, 0.175023
1906.64, 0.175203
1907.34, 0.174842
1908.04, 0.174601
1908.75, 0.174661
1909.45, 0.174782
1910.15, 0.174782
1910.86, 0.174782
1911.56, 0.174541
1912.27, 0.174421
1912.97, 0.174601
1913.68, 0.174661
1914.39, 0.174601
1915.09, 0.174661
1915.8, 0.174722
1916.51, 0.174782
1917.22, 0.174782
1917.93, 0.174541
1918.64, 0.174300
1919.35, 0.174541
1920.06, 0.175023
1920.77, 0.174963
1921.48, 0.174661
1922.19, 0.174601
1922.91, 0.174661
1923.62, 0.174541
1924.33, 0.174661
1925.05, 0.174722
1925.76, 0.174661
1926.48, 0.174541
1927.19, 0.174481
1927.91, 0.174782
1928.63, 0.174842
1929.35, 0.174661
1930.07, 0.174421
1930.78, 0.174782
1931.5, 0.174902
1932.22, 0.174902
1932.94, 0.175023
1933.66, 0.175143
1934.39, 0.175083
1935.11, 0.174842
1935.83, 0.174842
1936.55, 0.174963
1937.28, 0.175023
1938.0, 0.175083
1938.73, 0.175264
1939.45, 0.175264
1940.18, 0.175023
1940.9, 0.174842
1941.63, 0.175023
1942.36, 0.174782
1943.09, 0.174541
1943.81, 0.174661
1944.54, 0.174963
1945.27, 0.174963
1946.0, 0.174842
1946.73, 0.175023
1947.47, 0.175023
1948.2, 0.174902
1948.93, 0.174782
1949.66, 0.174782
1950.4, 0.174722
1951.13, 0.174661
1951.86, 0.174661
1952.6, 0.174722
1953.34, 0.174842
1954.07, 0.175023
1954.81, 0.175083
1955.55, 0.174782
1956.29, 0.174842
1957.02, 0.175023
1957.76, 0.175203
1958.5, 0.175384
1959.24, 0.175203
1959.98, 0.174782
1960.72, 0.174842
1961.47, 0.174963
1962.21, 0.175083
1962.95, 0.174963
1963.7, 0.175083
1964.44, 0.175203
1965.18, 0.175023
1965.93, 0.174842
1966.67, 0.175023
1967.42, 0.175023
1968.17, 0.175023
1968.92, 0.175143
1969.66, 0.175203
1970.41, 0.175264
1971.16, 0.175143
1971.91, 0.175324
1972.66, 0.175384
1973.41, 0.175083
1974.16, 0.175083
1974.92, 0.175264
1975.67, 0.175203
1976.42, 0.175023
1977.18, 0.175083
1977.93, 0.174963
1978.69, 0.175083
1979.44, 0.175023
1980.2, 0.175023
1980.95, 0.175143
1981.71, 0.175264
1982.47, 0.175384
1983.23, 0.175324
1983.99, 0.175083
1984.74, 0.174842
1985.51, 0.175083
1986.27, 0.175203
1987.03, 0.175203
1987.79, 0.175264
1988.55, 0.175324
1989.32, 0.175264
1990.08, 0.175203
1990.84, 0.175264
1991.61, 0.175324
1992.37, 0.175324
1993.14, 0.175143
1993.9, 0.175083
1994.67, 0.175023
1995.44, 0.175083
1996.21, 0.175203
1996.98, 0.175264
1997.75, 0.175083
1998.52, 0.175083
1999.29, 0.175143
2000.06, 0.175264
2000.83, 0.175384
2001.6, 0.175384
2002.38, 0.175384
2003.15, 0.175324
2003.93, 0.175264
2004.7, 0.175505
2005.48, 0.175384
2006.25, 0.175203
2007.03, 0.175203
2007.81, 0.175324
2008.58, 0.175384
2009.36, 0.175384
2010.14, 0.175264
2010.92, 0.175143
2011.7, 0.175324
2012.48, 0.175625
2013.26, 0.175926
2014.05, 0.175746
2014.83, 0.175444
2015.61, 0.175505
2016.4, 0.175625
2017.18, 0.175625
2017.97, 0.175565
2018.75, 0.175505
2019.54, 0.175324
2020.32, 0.175384
2021.11, 0.175384
2021.9, 0.175505
2022.69, 0.175746
2023.48, 0.175806
2024.27, 0.175746
2025.06, 0.175565
2025.85, 0.175625
2026.64, 0.175806
2027.44, 0.175806
2028.23, 0.175866
2029.02, 0.175866
2029.82, 0.175926
2030.61, 0.176047
2031.41, 0.176107
2032.2, 0.176107
2033.0, 0.176107
2033.8, 0.175866
2034.6, 0.175866
2035.4, 0.176047
2036.2, 0.175986
2037.0, 0.175746
2037.8, 0.175806
2038.6, 0.176167
2039.4, 0.176107
2040.2, 0.175926
2041.01, 0.175926
2041.81, 0.175986
2042.61, 0.176167
2043.42, 0.176348
2044.22, 0.176288
2045.03, 0.176107
2045.84, 0.176107
2046.65, 0.176047
2047.46, 0.176047
2048.26, 0.176047
2049.07, 0.176227
2049.88, 0.176227
2050.69, 0.176348
2051.51, 0.176288
2052.32, 0.176047
2053.13, 0.176167
2053.94, 0.176468
2054.76, 0.176589
2055.57, 0.176769
2056.39, 0.176769
2057.2, 0.176709
2058.02, 0.176589
2058.84, 0.176528
2059.66, 0.176468
2060.48, 0.176348
2061.29, 0.176408
2062.11, 0.176769
2062.94, 0.176890
2063.76, 0.176589
2064.58, 0.176589
2065.4, 0.176830
2066.22, 0.176709
2067.05, 0.176649
2067.87, 0.176709
2068.7, 0.176769
2069.52, 0.176830
2070.35, 0.176950
2071.18, 0.176830
2072.0, 0.176528
2072.83, 0.176468
2073.66, 0.176769
2074.49, 0.176830
2075.32, 0.176528
2076.15, 0.176227
2076.98, 0.176468
2077.82, 0.176769
2078.65, 0.176950
2079.48, 0.176950
2080.32, 0.176950
2081.15, 0.176830
2081.99, 0.176830
2082.83, 0.176890
2083.66, 0.176649
2084.5, 0.176769
2085.34, 0.176830
2086.18, 0.176649
2087.02, 0.176709
2087.86, 0.176769
2088.7, 0.176950
2089.54, 0.177131
2090.39, 0.177191
2091.23, 0.177071
2092.07, 0.177010
2092.92, 0.176830
2093.76, 0.176830
2094.61, 0.176890
2095.45, 0.177071
2096.3, 0.177311
2097.15, 0.177131
2098.0, 0.176830
2098.85, 0.176769
2099.7, 0.177071
2100.55, 0.177492
2101.4, 0.177432
2102.25, 0.177131
2103.1, 0.177191
2103.96, 0.177492
2104.81, 0.177552
2105.67, 0.177311
2106.52, 0.177131
2107.38, 0.177131
2108.24, 0.177251
2109.09, 0.177432
2109.95, 0.177613
2110.81, 0.177432
2111.67, 0.177131
2112.53, 0.177071
2113.39, 0.177432
2114.25, 0.177372
2115.12, 0.177372
2115.98, 0.177552
2116.84, 0.177372
2117.71, 0.177492
2118.58, 0.177613
2119.44, 0.177552
2120.31, 0.177432
2121.18, 0.177492
2122.04, 0.177673
2122.91, 0.177793
2123.78, 0.177733
2124.65, 0.177854
2125.52, 0.177914
2126.4, 0.177733
2127.27, 0.177552
2128.14, 0.177613
2129.02, 0.177793
2129.89, 0.178034
2130.77, 0.178215
2131.64, 0.178335
2132.52, 0.178396
2133.4, 0.178155
2134.27, 0.177733
2135.15, 0.177793
2136.03, 0.177793
2136.91, 0.177854
2137.79, 0.178094
2138.68, 0.178034
2139.56, 0.177974
2140.44, 0.178034
2141.33, 0.177974
2142.21, 0.178215
2143.1, 0.178275
2143.99, 0.178034
2144.87, 0.177974
2145.76, 0.178094
2146.65, 0.178215
2147.54, 0.178516
2148.43, 0.178335
2149.32, 0.178275
2150.21, 0.178516
2151.1, 0.178757
2151.99, 0.178697
2152.89, 0.178636
2153.78, 0.178697
2154.68, 0.178757
2155.57, 0.178636
2156.47, 0.178516
2157.37, 0.178757
2158.27, 0.178817
2159.16, 0.178697
2160.06, 0.178877
2160.96, 0.179179
2161.86, 0.179179
2162.77, 0.178938
2163.67, 0.178998
2164.57, 0.178938
2165.48, 0.178877
2166.38, 0.178817
2167.29, 0.178877
2168.2, 0.178877
2169.1, 0.179118
2170.01, 0.179239
2170.92, 0.179239
2171.83, 0.179179
2172.74, 0.179118
2173.65, 0.178938
2174.56, 0.178817
2175.47, 0.179058
2176.39, 0.179299
2177.3, 0.179239
2178.22, 0.178998
2179.13, 0.178877
2180.05, 0.178998
2180.96, 0.178998
2181.88, 0.178938
2182.8, 0.178998
2183.72, 0.179179
2184.64, 0.178998
2185.56, 0.178877
2186.48, 0.178757
2187.41, 0.178697
2188.33, 0.178757
2189.25, 0.178877
2190.18, 0.178998
2191.1, 0.179058
2192.03, 0.178938
2192.96, 0.178877
2193.89, 0.178938
2194.82, 0.178998
2195.74, 0.178998
2196.68, 0.178938
2197.61, 0.178938
2198.54, 0.178938
2199.47, 0.178817
2200.4, 0.178817
2201.34, 0.178938
2202.28, 0.179058
2203.21, 0.178998
2204.15, 0.178998
2205.08, 0.178998
2206.02, 0.179058
2206.96, 0.179239
2207.9, 0.179179
2208.84, 0.179239
2209.78, 0.179239
2210.73, 0.179359
2211.67, 0.179540
2212.61, 0.179419
2213.56, 0.179299
2214.5, 0.179480
2215.45, 0.179660
2216.4, 0.179480
2217.35, 0.179540
2218.3, 0.179660
2219.24, 0.179721
2220.2, 0.179781
2221.15, 0.179841
2222.1, 0.179721
2223.05, 0.179781
2224.0, 0.179841
2224.96, 0.180082
2225.91, 0.180504
2226.87, 0.180443
2227.83, 0.180323
2228.79, 0.180323
2229.74, 0.180323
2230.7, 0.180443
2231.66, 0.180263
2232.63, 0.180202
2233.59, 0.180323
2234.55, 0.180504
2235.51, 0.180564
2236.48, 0.180624
2237.44, 0.180504
2238.41, 0.180504
2239.38, 0.180744
2240.34, 0.180985
2241.31, 0.180805
2242.28, 0.180443
2243.25, 0.180443
2244.22, 0.180624
2245.19, 0.180865
2246.17, 0.180985
2247.14, 0.180925
2248.12, 0.180865
2249.09, 0.180925
2250.07, 0.180985
2251.04, 0.180985
2252.02, 0.181046
2253.0, 0.181046
2253.98, 0.181046
2254.96, 0.180985
2255.94, 0.181226
2256.92, 0.181226
2257.91, 0.181226
2258.89, 0.181106
2259.88, 0.180925
2260.86, 0.181046
2261.85, 0.181226
2262.83, 0.181527
2263.82, 0.181588
2264.81, 0.181648
2265.8, 0.181768
2266.79, 0.181588
2267.78, 0.181467
2268.78, 0.181648
2269.77, 0.181949
2270.76, 0.182130
2271.76, 0.182069
2272.75, 0.182130
2273.75, 0.182310
2274.75, 0.182250
2275.75, 0.182250
2276.75, 0.182190
2277.75, 0.182130
2278.75, 0.182250
2279.75, 0.182250
2280.75, 0.182190
2281.76, 0.182130
2282.76, 0.182250
2283.77, 0.182371
2284.77, 0.182551
2285.78, 0.182491
2286.79, 0.182310
2287.8, 0.182190
2288.81, 0.182250
2289.82, 0.182672
2290.83, 0.182732
2291.84, 0.182491
2292.86, 0.182431
2293.87, 0.182371
2294.89, 0.182491
2295.91, 0.182491
2296.92, 0.182371
2297.94, 0.182371
2298.96, 0.182431
2299.98, 0.182551
2301.0, 0.182612
2302.02, 0.182491
2303.04, 0.182431
2304.07, 0.182431
2305.09, 0.182551
2306.12, 0.182491
2307.15, 0.182551
2308.17, 0.182431
2309.2, 0.182371
2310.23, 0.182551
2311.26, 0.182551
2312.29, 0.182491
2313.32, 0.182431
2314.35, 0.182310
2315.39, 0.182371
2316.42, 0.182612
2317.46, 0.182612
2318.5, 0.182491
2319.53, 0.182491
2320.57, 0.182612
2321.61, 0.182612
2322.65, 0.182672
2323.69, 0.182491
2324.73, 0.182431
2325.78, 0.182491
2326.82, 0.182612
2327.86, 0.182672
2328.91, 0.182672
2329.96, 0.182732
2331.01, 0.182792
2332.05, 0.182732
2333.1, 0.182792
2334.15, 0.182852
2335.21, 0.183093
2336.26, 0.183274
2337.31, 0.183154
2338.36, 0.183033
2339.42, 0.183274
2340.48, 0.183395
2341.53, 0.183515
2342.59, 0.183515
2343.65, 0.183334
2344.71, 0.183334
2345.77, 0.183617
2346.83, 0.184012
2347.9, 0.184576
2348.96, 0.184858
2350.02, 0.184745
2351.09, 0.184576
2352.16, 0.184802
2353.23, 0.184802
2354.29, 0.184576
2355.36, 0.184576
2356.43, 0.184802
2357.51, 0.184689
2358.58, 0.185141
2359.65, 0.185592
2360.73, 0.185536
2361.8, 0.185705
2362.88, 0.186044
2363.96, 0.186044
2365.03, 0.185931
