Database of Origin, USGS Spectral Database
Sample Description, See USGS database for additional info
Date Added,2016-08-03 21:17:37.337421

Data ID,USGS_chr07          
Sample ID, chrysotile_ml99-12c.5250
Mineral Name, chrysotile
Material Class,Phyllosilicate

Wavelength
350.0, 0.0868880
351.0, 0.0868880
352.0, 0.0868880
353.0, 0.0868880
354.0, 0.0868880
355.0, 0.0874960
356.0, 0.0880650
357.0, 0.0885540
358.0, 0.0889460
359.0, 0.0893050
360.0, 0.0897150
361.0, 0.0902380
362.0, 0.0908340
363.0, 0.0914400
364.0, 0.0920060
365.0, 0.0925300
366.0, 0.0930200
367.0, 0.0934900
368.0, 0.0939570
369.0, 0.0944430
370.0, 0.0949620
371.0, 0.0954950
372.0, 0.0960160
373.0, 0.0965040
374.0, 0.0969660
375.0, 0.0974110
376.0, 0.0978520
377.0, 0.0982950
378.0, 0.0987470
379.0, 0.0992090
380.0, 0.0996500
381.0, 0.100034
382.0, 0.100341
383.0, 0.100616
384.0, 0.100920
385.0, 0.101299
386.0, 0.101731
387.0, 0.102180
388.0, 0.102616
389.0, 0.103041
390.0, 0.103464
391.0, 0.103890
392.0, 0.104327
393.0, 0.104777
394.0, 0.105240
395.0, 0.105693
396.0, 0.106109
397.0, 0.106470
398.0, 0.106790
399.0, 0.107091
400.0, 0.107389
401.0, 0.107679
402.0, 0.107948
403.0, 0.108191
404.0, 0.108417
405.0, 0.108643
406.0, 0.108882
407.0, 0.109129
408.0, 0.109374
409.0, 0.109611
410.0, 0.109849
411.0, 0.110095
412.0, 0.110357
413.0, 0.110631
414.0, 0.110912
415.0, 0.111195
416.0, 0.111484
417.0, 0.111787
418.0, 0.112106
419.0, 0.112436
420.0, 0.112771
421.0, 0.113103
422.0, 0.113427
423.0, 0.113742
424.0, 0.114045
425.0, 0.114348
426.0, 0.114663
427.0, 0.114998
428.0, 0.115341
429.0, 0.115677
430.0, 0.115994
431.0, 0.116292
432.0, 0.116576
433.0, 0.116850
434.0, 0.117118
435.0, 0.117384
436.0, 0.117647
437.0, 0.117903
438.0, 0.118144
439.0, 0.118365
440.0, 0.118579
441.0, 0.118799
442.0, 0.119037
443.0, 0.119290
444.0, 0.119548
445.0, 0.119807
446.0, 0.120068
447.0, 0.120336
448.0, 0.120613
449.0, 0.120893
450.0, 0.121167
451.0, 0.121430
452.0, 0.121690
453.0, 0.121959
454.0, 0.122244
455.0, 0.122538
456.0, 0.122826
457.0, 0.123101
458.0, 0.123372
459.0, 0.123649
460.0, 0.123945
461.0, 0.124263
462.0, 0.124607
463.0, 0.124978
464.0, 0.125371
465.0, 0.125779
466.0, 0.126198
467.0, 0.126634
468.0, 0.127092
469.0, 0.127578
470.0, 0.128083
471.0, 0.128598
472.0, 0.129111
473.0, 0.129621
474.0, 0.130124
475.0, 0.130616
476.0, 0.131096
477.0, 0.131560
478.0, 0.132005
479.0, 0.132435
480.0, 0.132854
481.0, 0.133268
482.0, 0.133671
483.0, 0.134061
484.0, 0.134434
485.0, 0.134790
486.0, 0.135132
487.0, 0.135462
488.0, 0.135777
489.0, 0.136078
490.0, 0.136362
491.0, 0.136636
492.0, 0.136907
493.0, 0.137183
494.0, 0.137470
495.0, 0.137777
496.0, 0.138107
497.0, 0.138460
498.0, 0.138831
499.0, 0.139215
500.0, 0.139605
501.0, 0.139992
502.0, 0.140371
503.0, 0.140743
504.0, 0.141110
505.0, 0.141474
506.0, 0.141831
507.0, 0.142176
508.0, 0.142507
509.0, 0.142824
510.0, 0.143132
511.0, 0.143434
512.0, 0.143731
513.0, 0.144024
514.0, 0.144311
515.0, 0.144591
516.0, 0.144860
517.0, 0.145114
518.0, 0.145357
519.0, 0.145589
520.0, 0.145812
521.0, 0.146028
522.0, 0.146238
523.0, 0.146442
524.0, 0.146642
525.0, 0.146841
526.0, 0.147039
527.0, 0.147234
528.0, 0.147425
529.0, 0.147610
530.0, 0.147792
531.0, 0.147975
532.0, 0.148161
533.0, 0.148349
534.0, 0.148534
535.0, 0.148714
536.0, 0.148890
537.0, 0.149065
538.0, 0.149241
539.0, 0.149418
540.0, 0.149594
541.0, 0.149768
542.0, 0.149937
543.0, 0.150102
544.0, 0.150261
545.0, 0.150415
546.0, 0.150566
547.0, 0.150715
548.0, 0.150862
549.0, 0.151008
550.0, 0.151151
551.0, 0.151292
552.0, 0.151428
553.0, 0.151559
554.0, 0.151686
555.0, 0.151810
556.0, 0.151930
557.0, 0.152047
558.0, 0.152157
559.0, 0.152259
560.0, 0.152353
561.0, 0.152440
562.0, 0.152519
563.0, 0.152592
564.0, 0.152662
565.0, 0.152729
566.0, 0.152793
567.0, 0.152851
568.0, 0.152902
569.0, 0.152947
570.0, 0.152989
571.0, 0.153030
572.0, 0.153068
573.0, 0.153104
574.0, 0.153137
575.0, 0.153166
576.0, 0.153190
577.0, 0.153209
578.0, 0.153223
579.0, 0.153231
580.0, 0.153234
581.0, 0.153233
582.0, 0.153229
583.0, 0.153225
584.0, 0.153219
585.0, 0.153213
586.0, 0.153205
587.0, 0.153197
588.0, 0.153187
589.0, 0.153176
590.0, 0.153162
591.0, 0.153143
592.0, 0.153118
593.0, 0.153089
594.0, 0.153059
595.0, 0.153031
596.0, 0.153003
597.0, 0.152974
598.0, 0.152946
599.0, 0.152919
600.0, 0.152898
601.0, 0.152884
602.0, 0.152878
603.0, 0.152882
604.0, 0.152894
605.0, 0.152916
606.0, 0.152951
607.0, 0.152997
608.0, 0.153050
609.0, 0.153102
610.0, 0.153147
611.0, 0.153176
612.0, 0.153179
613.0, 0.153151
614.0, 0.153094
615.0, 0.153012
616.0, 0.152910
617.0, 0.152794
618.0, 0.152667
619.0, 0.152534
620.0, 0.152398
621.0, 0.152262
622.0, 0.152126
623.0, 0.151990
624.0, 0.151854
625.0, 0.151714
626.0, 0.151573
627.0, 0.151430
628.0, 0.151287
629.0, 0.151149
630.0, 0.151021
631.0, 0.150909
632.0, 0.150808
633.0, 0.150715
634.0, 0.150626
635.0, 0.150538
636.0, 0.150450
637.0, 0.150361
638.0, 0.150269
639.0, 0.150176
640.0, 0.150080
641.0, 0.149981
642.0, 0.149882
643.0, 0.149782
644.0, 0.149679
645.0, 0.149570
646.0, 0.149454
647.0, 0.149332
648.0, 0.149208
649.0, 0.149084
650.0, 0.148962
651.0, 0.148841
652.0, 0.148722
653.0, 0.148602
654.0, 0.148480
655.0, 0.148354
656.0, 0.148226
657.0, 0.148098
658.0, 0.147972
659.0, 0.147848
660.0, 0.147725
661.0, 0.147604
662.0, 0.147483
663.0, 0.147360
664.0, 0.147236
665.0, 0.147110
666.0, 0.146986
667.0, 0.146863
668.0, 0.146742
669.0, 0.146623
670.0, 0.146506
671.0, 0.146391
672.0, 0.146277
673.0, 0.146163
674.0, 0.146049
675.0, 0.145934
676.0, 0.145819
677.0, 0.145704
678.0, 0.145589
679.0, 0.145475
680.0, 0.145364
681.0, 0.145254
682.0, 0.145147
683.0, 0.145041
684.0, 0.144937
685.0, 0.144834
686.0, 0.144732
687.0, 0.144633
688.0, 0.144535
689.0, 0.144440
690.0, 0.144345
691.0, 0.144252
692.0, 0.144158
693.0, 0.144063
694.0, 0.143967
695.0, 0.143869
696.0, 0.143768
697.0, 0.143665
698.0, 0.143562
699.0, 0.143459
700.0, 0.143357
701.0, 0.143257
702.0, 0.143158
703.0, 0.143062
704.0, 0.142967
705.0, 0.142872
706.0, 0.142776
707.0, 0.142679
708.0, 0.142583
709.0, 0.142487
710.0, 0.142392
711.0, 0.142298
712.0, 0.142205
713.0, 0.142113
714.0, 0.142023
715.0, 0.141934
716.0, 0.141845
717.0, 0.141755
718.0, 0.141664
719.0, 0.141571
720.0, 0.141477
721.0, 0.141383
722.0, 0.141291
723.0, 0.141203
724.0, 0.141122
725.0, 0.141045
726.0, 0.140972
727.0, 0.140901
728.0, 0.140832
729.0, 0.140764
730.0, 0.140697
731.0, 0.140632
732.0, 0.140569
733.0, 0.140510
734.0, 0.140453
735.0, 0.140399
736.0, 0.140347
737.0, 0.140296
738.0, 0.140248
739.0, 0.140203
740.0, 0.140159
741.0, 0.140117
742.0, 0.140075
743.0, 0.140035
744.0, 0.139999
745.0, 0.139968
746.0, 0.139941
747.0, 0.139919
748.0, 0.139900
749.0, 0.139884
750.0, 0.139869
751.0, 0.139857
752.0, 0.139845
753.0, 0.139833
754.0, 0.139822
755.0, 0.139812
756.0, 0.139804
757.0, 0.139800
758.0, 0.139802
759.0, 0.139809
760.0, 0.139822
761.0, 0.139840
762.0, 0.139860
763.0, 0.139882
764.0, 0.139905
765.0, 0.139929
766.0, 0.139955
767.0, 0.139981
768.0, 0.140010
769.0, 0.140040
770.0, 0.140072
771.0, 0.140107
772.0, 0.140145
773.0, 0.140185
774.0, 0.140228
775.0, 0.140272
776.0, 0.140317
777.0, 0.140363
778.0, 0.140410
779.0, 0.140458
780.0, 0.140507
781.0, 0.140557
782.0, 0.140608
783.0, 0.140658
784.0, 0.140709
785.0, 0.140759
786.0, 0.140809
787.0, 0.140860
788.0, 0.140912
789.0, 0.140965
790.0, 0.141019
791.0, 0.141073
792.0, 0.141126
793.0, 0.141178
794.0, 0.141229
795.0, 0.141279
796.0, 0.141330
797.0, 0.141380
798.0, 0.141430
799.0, 0.141480
800.0, 0.141527
801.0, 0.141573
802.0, 0.141617
803.0, 0.141657
804.0, 0.141695
805.0, 0.141730
806.0, 0.141762
807.0, 0.141792
808.0, 0.141820
809.0, 0.141846
810.0, 0.141871
811.0, 0.141893
812.0, 0.141914
813.0, 0.141934
814.0, 0.141954
815.0, 0.141973
816.0, 0.141990
817.0, 0.142005
818.0, 0.142017
819.0, 0.142026
820.0, 0.142030
821.0, 0.142030
822.0, 0.142028
823.0, 0.142025
824.0, 0.142018
825.0, 0.142007
826.0, 0.141991
827.0, 0.141971
828.0, 0.141947
829.0, 0.141920
830.0, 0.141890
831.0, 0.141859
832.0, 0.141825
833.0, 0.141789
834.0, 0.141750
835.0, 0.141708
836.0, 0.141664
837.0, 0.141617
838.0, 0.141569
839.0, 0.141519
840.0, 0.141468
841.0, 0.141417
842.0, 0.141366
843.0, 0.141312
844.0, 0.141256
845.0, 0.141199
846.0, 0.141141
847.0, 0.141083
848.0, 0.141025
849.0, 0.140965
850.0, 0.140904
851.0, 0.140841
852.0, 0.140776
853.0, 0.140709
854.0, 0.140641
855.0, 0.140573
856.0, 0.140506
857.0, 0.140439
858.0, 0.140371
859.0, 0.140301
860.0, 0.140229
861.0, 0.140157
862.0, 0.140086
863.0, 0.140015
864.0, 0.139945
865.0, 0.139876
866.0, 0.139809
867.0, 0.139741
868.0, 0.139671
869.0, 0.139602
870.0, 0.139533
871.0, 0.139466
872.0, 0.139400
873.0, 0.139335
874.0, 0.139271
875.0, 0.139207
876.0, 0.139142
877.0, 0.139078
878.0, 0.139013
879.0, 0.138950
880.0, 0.138887
881.0, 0.138824
882.0, 0.138762
883.0, 0.138700
884.0, 0.138639
885.0, 0.138577
886.0, 0.138516
887.0, 0.138457
888.0, 0.138398
889.0, 0.138341
890.0, 0.138285
891.0, 0.138230
892.0, 0.138175
893.0, 0.138121
894.0, 0.138066
895.0, 0.138011
896.0, 0.137956
897.0, 0.137904
898.0, 0.137854
899.0, 0.137809
900.0, 0.137767
901.0, 0.137730
902.0, 0.137696
903.0, 0.137665
904.0, 0.137635
905.0, 0.137608
906.0, 0.137582
907.0, 0.137558
908.0, 0.137535
909.0, 0.137514
910.0, 0.137491
911.0, 0.137469
912.0, 0.137446
913.0, 0.137423
914.0, 0.137399
915.0, 0.137376
916.0, 0.137354
917.0, 0.137332
918.0, 0.137312
919.0, 0.137293
920.0, 0.137276
921.0, 0.137261
922.0, 0.137249
923.0, 0.137240
924.0, 0.137232
925.0, 0.137225
926.0, 0.137221
927.0, 0.137217
928.0, 0.137216
929.0, 0.137217
930.0, 0.137219
931.0, 0.137223
932.0, 0.137224
933.0, 0.137222
934.0, 0.137213
935.0, 0.137192
936.0, 0.137156
937.0, 0.137100
938.0, 0.137022
939.0, 0.136922
940.0, 0.136798
941.0, 0.136660
942.0, 0.136520
943.0, 0.136388
944.0, 0.136276
945.0, 0.136192
946.0, 0.136145
947.0, 0.136130
948.0, 0.136141
949.0, 0.136172
950.0, 0.136221
951.0, 0.136284
952.0, 0.136360
953.0, 0.136446
954.0, 0.136539
955.0, 0.136636
956.0, 0.136734
957.0, 0.136830
958.0, 0.136921
959.0, 0.137007
960.0, 0.137087
961.0, 0.137160
962.0, 0.137228
963.0, 0.137292
964.0, 0.137353
965.0, 0.137411
966.0, 0.137467
967.0, 0.137519
968.0, 0.137569
969.0, 0.137617
970.0, 0.137662
971.0, 0.137706
972.0, 0.137749
973.0, 0.137791
974.0, 0.137832
975.0, 0.137870
976.0, 0.137905
977.0, 0.137937
978.0, 0.137967
979.0, 0.137995
980.0, 0.138023
981.0, 0.138051
982.0, 0.138079
983.0, 0.138107
984.0, 0.138134
985.0, 0.138159
986.0, 0.138183
987.0, 0.138204
988.0, 0.138223
989.0, 0.138243
990.0, 0.138267
991.0, 0.138295
992.0, 0.138325
993.0, 0.138351
994.0, 0.138370
995.0, 0.138383
996.0, 0.138394
997.0, 0.138405
998.0, 0.138412
999.0, 0.138412
1000.0, 0.138401
1001.0, 0.138384
1002.0, 0.138367
1003.0, 0.138355
1004.0, 0.138353
1005.0, 0.138367
1006.0, 0.138399
1007.0, 0.138432
1008.0, 0.138446
1009.0, 0.138430
1010.0, 0.138398
1011.0, 0.138373
1012.0, 0.138373
1013.0, 0.138391
1014.0, 0.138416
1015.0, 0.138434
1016.0, 0.138439
1017.0, 0.138435
1018.0, 0.138426
1019.0, 0.138416
1020.0, 0.138403
1021.0, 0.138387
1022.0, 0.138366
1023.0, 0.138345
1024.0, 0.138326
1025.0, 0.138311
1026.0, 0.138301
1027.0, 0.138294
1028.0, 0.138290
1029.0, 0.138287
1030.0, 0.138285
1031.0, 0.138282
1032.0, 0.138279
1033.0, 0.138274
1034.0, 0.138269
1035.0, 0.138264
1036.0, 0.138260
1037.0, 0.138257
1038.0, 0.138255
1039.0, 0.138252
1040.0, 0.138248
1041.0, 0.138241
1042.0, 0.138229
1043.0, 0.138210
1044.0, 0.138186
1045.0, 0.138158
1046.0, 0.138128
1047.0, 0.138098
1048.0, 0.138069
1049.0, 0.138043
1050.0, 0.138020
1051.0, 0.138000
1052.0, 0.137981
1053.0, 0.137962
1054.0, 0.137943
1055.0, 0.137922
1056.0, 0.137898
1057.0, 0.137871
1058.0, 0.137841
1059.0, 0.137810
1060.0, 0.137779
1061.0, 0.137749
1062.0, 0.137721
1063.0, 0.137697
1064.0, 0.137675
1065.0, 0.137656
1066.0, 0.137639
1067.0, 0.137621
1068.0, 0.137602
1069.0, 0.137580
1070.0, 0.137554
1071.0, 0.137525
1072.0, 0.137493
1073.0, 0.137459
1074.0, 0.137424
1075.0, 0.137389
1076.0, 0.137356
1077.0, 0.137326
1078.0, 0.137298
1079.0, 0.137273
1080.0, 0.137249
1081.0, 0.137225
1082.0, 0.137199
1083.0, 0.137172
1084.0, 0.137141
1085.0, 0.137108
1086.0, 0.137073
1087.0, 0.137037
1088.0, 0.137000
1089.0, 0.136965
1090.0, 0.136930
1091.0, 0.136898
1092.0, 0.136867
1093.0, 0.136837
1094.0, 0.136808
1095.0, 0.136780
1096.0, 0.136753
1097.0, 0.136726
1098.0, 0.136700
1099.0, 0.136674
1100.0, 0.136648
1101.0, 0.136623
1102.0, 0.136599
1103.0, 0.136577
1104.0, 0.136556
1105.0, 0.136536
1106.0, 0.136519
1107.0, 0.136502
1108.0, 0.136485
1109.0, 0.136469
1110.0, 0.136453
1111.0, 0.136438
1112.0, 0.136423
1113.0, 0.136409
1114.0, 0.136395
1115.0, 0.136383
1116.0, 0.136371
1117.0, 0.136359
1118.0, 0.136346
1119.0, 0.136333
1120.0, 0.136318
1121.0, 0.136301
1122.0, 0.136282
1123.0, 0.136260
1124.0, 0.136236
1125.0, 0.136210
1126.0, 0.136182
1127.0, 0.136153
1128.0, 0.136123
1129.0, 0.136093
1130.0, 0.136063
1131.0, 0.136035
1132.0, 0.136006
1133.0, 0.135979
1134.0, 0.135951
1135.0, 0.135923
1136.0, 0.135894
1137.0, 0.135864
1138.0, 0.135833
1139.0, 0.135800
1140.0, 0.135766
1141.0, 0.135732
1142.0, 0.135696
1143.0, 0.135662
1144.0, 0.135628
1145.0, 0.135595
1146.0, 0.135565
1147.0, 0.135538
1148.0, 0.135513
1149.0, 0.135491
1150.0, 0.135471
1151.0, 0.135453
1152.0, 0.135437
1153.0, 0.135423
1154.0, 0.135409
1155.0, 0.135396
1156.0, 0.135383
1157.0, 0.135371
1158.0, 0.135358
1159.0, 0.135346
1160.0, 0.135334
1161.0, 0.135322
1162.0, 0.135312
1163.0, 0.135304
1164.0, 0.135299
1165.0, 0.135296
1166.0, 0.135297
1167.0, 0.135300
1168.0, 0.135306
1169.0, 0.135314
1170.0, 0.135323
1171.0, 0.135332
1172.0, 0.135340
1173.0, 0.135348
1174.0, 0.135355
1175.0, 0.135361
1176.0, 0.135366
1177.0, 0.135370
1178.0, 0.135374
1179.0, 0.135378
1180.0, 0.135384
1181.0, 0.135393
1182.0, 0.135403
1183.0, 0.135416
1184.0, 0.135430
1185.0, 0.135447
1186.0, 0.135464
1187.0, 0.135482
1188.0, 0.135501
1189.0, 0.135521
1190.0, 0.135542
1191.0, 0.135564
1192.0, 0.135587
1193.0, 0.135612
1194.0, 0.135639
1195.0, 0.135667
1196.0, 0.135697
1197.0, 0.135727
1198.0, 0.135758
1199.0, 0.135788
1200.0, 0.135817
1201.0, 0.135845
1202.0, 0.135871
1203.0, 0.135896
1204.0, 0.135921
1205.0, 0.135946
1206.0, 0.135972
1207.0, 0.135999
1208.0, 0.136028
1209.0, 0.136058
1210.0, 0.136090
1211.0, 0.136124
1212.0, 0.136158
1213.0, 0.136193
1214.0, 0.136228
1215.0, 0.136264
1216.0, 0.136299
1217.0, 0.136334
1218.0, 0.136369
1219.0, 0.136404
1220.0, 0.136439
1221.0, 0.136475
1222.0, 0.136512
1223.0, 0.136548
1224.0, 0.136585
1225.0, 0.136623
1226.0, 0.136660
1227.0, 0.136698
1228.0, 0.136738
1229.0, 0.136778
1230.0, 0.136819
1231.0, 0.136862
1232.0, 0.136905
1233.0, 0.136950
1234.0, 0.136995
1235.0, 0.137040
1236.0, 0.137084
1237.0, 0.137127
1238.0, 0.137169
1239.0, 0.137210
1240.0, 0.137248
1241.0, 0.137285
1242.0, 0.137319
1243.0, 0.137352
1244.0, 0.137382
1245.0, 0.137411
1246.0, 0.137437
1247.0, 0.137461
1248.0, 0.137483
1249.0, 0.137503
1250.0, 0.137519
1251.0, 0.137534
1252.0, 0.137545
1253.0, 0.137554
1254.0, 0.137561
1255.0, 0.137566
1256.0, 0.137569
1257.0, 0.137570
1258.0, 0.137570
1259.0, 0.137569
1260.0, 0.137566
1261.0, 0.137563
1262.0, 0.137558
1263.0, 0.137552
1264.0, 0.137545
1265.0, 0.137537
1266.0, 0.137528
1267.0, 0.137517
1268.0, 0.137505
1269.0, 0.137491
1270.0, 0.137475
1271.0, 0.137458
1272.0, 0.137438
1273.0, 0.137416
1274.0, 0.137393
1275.0, 0.137369
1276.0, 0.137345
1277.0, 0.137322
1278.0, 0.137301
1279.0, 0.137284
1280.0, 0.137272
1281.0, 0.137268
1282.0, 0.137274
1283.0, 0.137290
1284.0, 0.137319
1285.0, 0.137361
1286.0, 0.137417
1287.0, 0.137485
1288.0, 0.137566
1289.0, 0.137656
1290.0, 0.137755
1291.0, 0.137860
1292.0, 0.137968
1293.0, 0.138077
1294.0, 0.138185
1295.0, 0.138290
1296.0, 0.138390
1297.0, 0.138485
1298.0, 0.138573
1299.0, 0.138655
1300.0, 0.138730
1301.0, 0.138798
1302.0, 0.138861
1303.0, 0.138917
1304.0, 0.138969
1305.0, 0.139017
1306.0, 0.139060
1307.0, 0.139101
1308.0, 0.139139
1309.0, 0.139176
1310.0, 0.139212
1311.0, 0.139246
1312.0, 0.139280
1313.0, 0.139314
1314.0, 0.139348
1315.0, 0.139380
1316.0, 0.139411
1317.0, 0.139441
1318.0, 0.139469
1319.0, 0.139495
1320.0, 0.139519
1321.0, 0.139541
1322.0, 0.139560
1323.0, 0.139578
1324.0, 0.139595
1325.0, 0.139610
1326.0, 0.139623
1327.0, 0.139635
1328.0, 0.139645
1329.0, 0.139653
1330.0, 0.139660
1331.0, 0.139664
1332.0, 0.139666
1333.0, 0.139665
1334.0, 0.139661
1335.0, 0.139653
1336.0, 0.139640
1337.0, 0.139620
1338.0, 0.139592
1339.0, 0.139554
1340.0, 0.139504
1341.0, 0.139438
1342.0, 0.139354
1343.0, 0.139249
1344.0, 0.139122
1345.0, 0.138970
1346.0, 0.138793
1347.0, 0.138591
1348.0, 0.138366
1349.0, 0.138121
1350.0, 0.137859
1351.0, 0.137587
1352.0, 0.137311
1353.0, 0.137036
1354.0, 0.136772
1355.0, 0.136525
1356.0, 0.136300
1357.0, 0.136105
1358.0, 0.135941
1359.0, 0.135810
1360.0, 0.135710
1361.0, 0.135639
1362.0, 0.135587
1363.0, 0.135544
1364.0, 0.135498
1365.0, 0.135431
1366.0, 0.135321
1367.0, 0.135148
1368.0, 0.134888
1369.0, 0.134516
1370.0, 0.134008
1371.0, 0.133346
1372.0, 0.132514
1373.0, 0.131499
1374.0, 0.130304
1375.0, 0.128935
1376.0, 0.127403
1377.0, 0.125741
1378.0, 0.123980
1379.0, 0.122157
1380.0, 0.120321
1381.0, 0.118521
1382.0, 0.116802
1383.0, 0.115208
1384.0, 0.113781
1385.0, 0.112554
1386.0, 0.111548
1387.0, 0.110783
1388.0, 0.110269
1389.0, 0.110002
1390.0, 0.109976
1391.0, 0.110181
1392.0, 0.110595
1393.0, 0.111198
1394.0, 0.111965
1395.0, 0.112870
1396.0, 0.113886
1397.0, 0.114988
1398.0, 0.116151
1399.0, 0.117352
1400.0, 0.118570
1401.0, 0.119789
1402.0, 0.120994
1403.0, 0.122170
1404.0, 0.123312
1405.0, 0.124411
1406.0, 0.125463
1407.0, 0.126463
1408.0, 0.127411
1409.0, 0.128304
1410.0, 0.129141
1411.0, 0.129921
1412.0, 0.130643
1413.0, 0.131307
1414.0, 0.131913
1415.0, 0.132462
1416.0, 0.132955
1417.0, 0.133395
1418.0, 0.133786
1419.0, 0.134131
1420.0, 0.134436
1421.0, 0.134704
1422.0, 0.134942
1423.0, 0.135154
1424.0, 0.135344
1425.0, 0.135518
1426.0, 0.135679
1427.0, 0.135829
1428.0, 0.135971
1429.0, 0.136105
1430.0, 0.136235
1431.0, 0.136359
1432.0, 0.136479
1433.0, 0.136594
1434.0, 0.136706
1435.0, 0.136815
1436.0, 0.136919
1437.0, 0.137021
1438.0, 0.137119
1439.0, 0.137214
1440.0, 0.137306
1441.0, 0.137394
1442.0, 0.137480
1443.0, 0.137562
1444.0, 0.137641
1445.0, 0.137717
1446.0, 0.137789
1447.0, 0.137858
1448.0, 0.137923
1449.0, 0.137986
1450.0, 0.138046
1451.0, 0.138104
1452.0, 0.138160
1453.0, 0.138214
1454.0, 0.138267
1455.0, 0.138318
1456.0, 0.138369
1457.0, 0.138418
1458.0, 0.138467
1459.0, 0.138516
1460.0, 0.138565
1461.0, 0.138615
1462.0, 0.138665
1463.0, 0.138716
1464.0, 0.138767
1465.0, 0.138820
1466.0, 0.138874
1467.0, 0.138928
1468.0, 0.138984
1469.0, 0.139039
1470.0, 0.139095
1471.0, 0.139151
1472.0, 0.139207
1473.0, 0.139263
1474.0, 0.139318
1475.0, 0.139373
1476.0, 0.139428
1477.0, 0.139483
1478.0, 0.139539
