Database of Origin, USGS Spectral Database
Sample Description, See USGS database for additional info
Date Added,2016-08-03 21:04:25.538248

Data ID,USGS_axi02          
Sample ID, axinite_hs342.3314
Mineral Name, axinite
Material Class,Cyclosilicate

Wavelength
1602.52, 0.198866
1603.02, 0.199019
1603.51, 0.199325
1604.01, 0.199325
1604.5, 0.199172
1605.0, 0.199121
1605.5, 0.198713
1606.0, 0.198306
1606.49, 0.198510
1606.99, 0.198764
1607.49, 0.198917
1607.99, 0.198662
1608.49, 0.198357
1608.99, 0.198357
1609.49, 0.198408
1609.99, 0.198102
1610.49, 0.197848
1610.99, 0.197949
1611.49, 0.198102
1611.99, 0.197746
1612.49, 0.197644
1612.99, 0.197593
1613.49, 0.197389
1614.0, 0.197135
1614.5, 0.197084
1615.0, 0.196982
1615.51, 0.196931
1616.01, 0.196931
1616.51, 0.196982
1617.02, 0.196931
1617.52, 0.196218
1618.03, 0.195963
1618.53, 0.196167
1619.04, 0.196218
1619.54, 0.196116
1620.05, 0.195862
1620.55, 0.195760
1621.06, 0.195709
1621.57, 0.195505
1622.08, 0.195352
1622.58, 0.194996
1623.09, 0.195098
1623.6, 0.195505
1624.11, 0.195454
1624.62, 0.194843
1625.13, 0.194283
1625.64, 0.194283
1626.15, 0.194436
1626.66, 0.194334
1627.17, 0.193875
1627.68, 0.193723
1628.19, 0.193774
1628.7, 0.193468
1629.21, 0.193112
1629.72, 0.193061
1630.24, 0.193010
1630.75, 0.192806
1631.26, 0.192704
1631.78, 0.192500
1632.29, 0.192500
1632.8, 0.192500
1633.32, 0.192246
1633.83, 0.192144
1634.35, 0.192093
1634.86, 0.192042
1635.38, 0.191940
1635.9, 0.191584
1636.41, 0.191329
1636.93, 0.191176
1637.45, 0.191074
1637.96, 0.190718
1638.48, 0.190311
1639.0, 0.190412
1639.52, 0.190718
1640.04, 0.190922
1640.56, 0.190769
1641.08, 0.190514
1641.59, 0.190107
1642.11, 0.189598
1642.63, 0.189343
1643.16, 0.189547
1643.68, 0.189903
1644.2, 0.189649
1644.72, 0.188987
1645.24, 0.188375
1645.76, 0.188681
1646.29, 0.188885
1646.81, 0.188630
1647.33, 0.188681
1647.86, 0.188274
1648.38, 0.187662
1648.9, 0.187408
1649.43, 0.187255
1649.95, 0.187153
1650.48, 0.187204
1651.0, 0.187306
1651.53, 0.186848
1652.06, 0.186695
1652.58, 0.186848
1653.11, 0.186542
1653.64, 0.186135
1654.17, 0.185931
1654.69, 0.185778
1655.22, 0.185625
1655.75, 0.185524
1656.28, 0.185167
1656.81, 0.185065
1657.34, 0.185167
1657.87, 0.184963
1658.4, 0.184658
1658.93, 0.184454
1659.46, 0.184301
1659.99, 0.184199
1660.52, 0.183843
1661.05, 0.183843
1661.59, 0.184301
1662.12, 0.184098
1662.65, 0.183487
1663.19, 0.183283
1663.72, 0.183232
1664.26, 0.182926
1664.79, 0.182672
1665.32, 0.182621
1665.86, 0.182417
1666.39, 0.182061
1666.93, 0.182162
1667.47, 0.181908
1668.0, 0.181449
1668.54, 0.181500
1669.08, 0.181653
1669.61, 0.181399
1670.15, 0.181093
1670.69, 0.180838
1671.23, 0.180635
1671.77, 0.180533
1672.31, 0.180329
1672.85, 0.179871
1673.39, 0.179667
1673.93, 0.179616
1674.47, 0.179565
1675.01, 0.179362
1675.55, 0.179107
1676.09, 0.178954
1676.64, 0.178954
1677.18, 0.178699
1677.72, 0.178139
1678.26, 0.177783
1678.81, 0.177630
1679.35, 0.177528
1679.89, 0.177528
1680.44, 0.177528
1680.98, 0.177172
1681.53, 0.176968
1682.07, 0.176866
1682.62, 0.176815
1683.17, 0.176866
1683.71, 0.176713
1684.26, 0.176459
1684.81, 0.176153
1685.36, 0.175746
1685.9, 0.175746
1686.45, 0.175695
1687.0, 0.175440
1687.55, 0.175236
1688.1, 0.175135
1688.65, 0.174931
1689.2, 0.174422
1689.75, 0.174371
1690.3, 0.174371
1690.85, 0.174218
1691.41, 0.173912
1691.96, 0.173607
1692.51, 0.173352
1693.06, 0.172996
1693.61, 0.173047
1694.17, 0.173047
1694.72, 0.172894
1695.28, 0.172690
1695.83, 0.172334
1696.39, 0.172028
1696.94, 0.172028
1697.5, 0.171926
1698.05, 0.171723
1698.61, 0.171417
1699.17, 0.171213
1699.72, 0.171010
1700.28, 0.171010
1700.84, 0.170551
1701.4, 0.170246
1701.95, 0.169889
1702.51, 0.169838
1703.07, 0.170093
1703.63, 0.169889
1704.19, 0.169431
1704.75, 0.169329
1705.31, 0.169380
1705.88, 0.169227
1706.44, 0.168820
1707.0, 0.168616
1707.56, 0.168412
1708.12, 0.168158
1708.69, 0.167954
1709.25, 0.167750
1709.81, 0.167598
1710.38, 0.167598
1710.94, 0.167649
1711.51, 0.167394
1712.07, 0.167190
1712.64, 0.166681
1713.2, 0.166324
1713.77, 0.166273
1714.34, 0.166324
1714.9, 0.166172
1715.47, 0.166019
1716.04, 0.166019
1716.61, 0.165662
1717.18, 0.165306
1717.74, 0.165051
1718.31, 0.164848
1718.88, 0.164491
1719.45, 0.164389
1720.02, 0.164440
1720.59, 0.164236
1721.17, 0.164033
1721.74, 0.163625
1722.31, 0.163574
1722.88, 0.163676
1723.45, 0.163523
1724.03, 0.163167
1724.6, 0.162861
1725.18, 0.162912
1725.75, 0.162760
1726.33, 0.162505
1726.9, 0.162403
1727.48, 0.162199
1728.05, 0.161996
1728.63, 0.161996
1729.2, 0.161843
1729.78, 0.161741
1730.36, 0.161588
1730.94, 0.161232
1731.51, 0.160926
1732.09, 0.160672
1732.67, 0.160723
1733.25, 0.160570
1733.83, 0.160213
1734.41, 0.159959
1734.99, 0.159755
1735.57, 0.159653
1736.15, 0.159500
1736.73, 0.159500
1737.32, 0.159297
1737.9, 0.158940
1738.48, 0.158889
1739.07, 0.158889
1739.65, 0.158889
1740.23, 0.158686
1740.82, 0.158329
1741.4, 0.157871
1741.99, 0.157667
1742.57, 0.157718
1743.16, 0.157667
1743.74, 0.157463
1744.33, 0.157260
1744.92, 0.157107
1745.51, 0.156852
1746.09, 0.156852
1746.68, 0.156648
1747.27, 0.156547
1747.86, 0.156241
1748.45, 0.155936
1749.04, 0.155936
1749.63, 0.155885
1750.22, 0.155579
1750.81, 0.155070
1751.4, 0.155070
1751.99, 0.154968
1752.59, 0.154662
1753.18, 0.154611
1753.77, 0.154459
1754.37, 0.154306
1754.96, 0.154408
1755.56, 0.154153
1756.15, 0.153797
1756.74, 0.153593
1757.34, 0.153542
1757.94, 0.153593
1758.53, 0.153236
1759.13, 0.152676
1759.73, 0.152523
1760.32, 0.152625
1760.92, 0.152574
1761.52, 0.152473
1762.12, 0.152218
1762.72, 0.152065
1763.32, 0.151963
1763.92, 0.151760
1764.52, 0.151505
1765.12, 0.151250
1765.72, 0.151301
1766.32, 0.151250
1766.92, 0.151250
1767.53, 0.150945
1768.13, 0.150486
1768.73, 0.150283
1769.34, 0.150232
1769.94, 0.150130
1770.55, 0.149875
1771.15, 0.149672
1771.76, 0.149468
1772.36, 0.149162
1772.97, 0.149061
1773.57, 0.148908
1774.18, 0.148857
1774.79, 0.148755
1775.4, 0.148398
1776.0, 0.148297
1776.61, 0.148551
1777.22, 0.148449
1777.83, 0.148042
1778.44, 0.147635
1779.05, 0.147533
1779.66, 0.147380
1780.27, 0.147176
1780.88, 0.147074
1781.5, 0.146820
1782.11, 0.146565
1782.72, 0.146463
1783.33, 0.146514
1783.95, 0.146514
1784.56, 0.146361
1785.18, 0.146260
1785.79, 0.146107
1786.41, 0.145750
1787.02, 0.145496
1787.64, 0.145241
1788.26, 0.145139
1788.87, 0.145088
1789.49, 0.144936
1790.11, 0.144783
1790.73, 0.144732
1791.35, 0.144477
1791.96, 0.144273
1792.58, 0.144121
1793.21, 0.143866
1793.83, 0.143713
1794.45, 0.143510
1795.07, 0.143255
1795.69, 0.143051
1796.31, 0.143102
1796.93, 0.143153
1797.56, 0.142898
1798.18, 0.142746
1798.8, 0.142746
1799.43, 0.142644
1800.05, 0.142593
1800.68, 0.142287
1801.3, 0.141931
1801.93, 0.141727
1802.56, 0.141829
1803.18, 0.141982
1803.81, 0.141727
1804.44, 0.141269
1805.07, 0.141065
1805.7, 0.141065
1806.33, 0.141014
1806.95, 0.140760
1807.58, 0.140556
1808.22, 0.140403
1808.85, 0.140301
1809.48, 0.140148
1810.11, 0.140047
1810.74, 0.139996
1811.38, 0.139996
1812.01, 0.139843
1812.64, 0.139639
1813.28, 0.139435
1813.91, 0.139334
1814.55, 0.139283
1815.18, 0.138875
1815.82, 0.138773
1816.45, 0.138926
1817.09, 0.139028
1817.73, 0.138672
1818.36, 0.138264
1819.0, 0.138162
1819.64, 0.137959
1820.28, 0.137704
1820.92, 0.137704
1821.56, 0.137602
1822.2, 0.137449
1822.84, 0.137500
1823.48, 0.137398
1824.12, 0.137297
1824.76, 0.137144
1825.41, 0.136787
1826.05, 0.136635
1826.69, 0.136635
1827.34, 0.136584
1827.98, 0.136482
1828.63, 0.136329
1829.27, 0.136023
1829.92, 0.135820
1830.56, 0.135769
1831.21, 0.135820
1831.86, 0.135667
1832.5, 0.135310
1833.15, 0.135158
1833.8, 0.135158
1834.45, 0.135056
1835.1, 0.134954
1835.75, 0.134750
1836.4, 0.134750
1837.05, 0.134699
1837.7, 0.134496
1838.35, 0.134445
1839.01, 0.134139
1839.66, 0.133834
1840.31, 0.133935
1840.96, 0.133783
1841.62, 0.133579
1842.27, 0.133426
1842.93, 0.133324
1843.58, 0.133375
1844.24, 0.133324
1844.9, 0.133019
1845.55, 0.132764
1846.21, 0.132408
1846.87, 0.132102
1847.53, 0.132255
1848.18, 0.132204
1848.84, 0.132153
1849.5, 0.132204
1850.16, 0.132051
1850.82, 0.131695
1851.48, 0.131491
1852.14, 0.131236
1852.81, 0.131033
1853.47, 0.130931
1854.13, 0.130982
1854.8, 0.130829
1855.46, 0.130727
1856.12, 0.130523
1856.79, 0.130422
1857.45, 0.130625
1858.12, 0.130523
1858.79, 0.130116
1859.45, 0.129861
1860.12, 0.129709
1860.79, 0.129760
1861.46, 0.129963
1862.12, 0.129861
1862.79, 0.129607
1863.46, 0.129505
1864.13, 0.129199
1864.8, 0.128945
1865.48, 0.128945
1866.15, 0.129047
1866.82, 0.128792
1867.49, 0.128435
1868.16, 0.128537
1868.84, 0.128639
1869.51, 0.128435
1870.19, 0.127977
1870.86, 0.127723
1871.54, 0.127621
1872.21, 0.127468
1872.89, 0.127519
1873.56, 0.127519
1874.24, 0.127519
1874.92, 0.127366
1875.6, 0.127366
1876.28, 0.127111
1876.96, 0.126806
1877.64, 0.126602
1878.32, 0.126602
1879.0, 0.126755
1879.68, 0.126653
1880.36, 0.126500
1881.04, 0.126347
1881.73, 0.126246
1882.41, 0.126246
1883.09, 0.126042
1883.78, 0.125838
1884.46, 0.125889
1885.15, 0.125685
1885.83, 0.125533
1886.52, 0.125431
1887.21, 0.125227
1887.89, 0.125227
1888.58, 0.125227
1889.27, 0.125023
1889.96, 0.124820
1890.65, 0.124667
1891.34, 0.124565
1892.03, 0.124514
1892.72, 0.124463
1893.41, 0.124209
1894.1, 0.124005
1894.79, 0.124056
1895.49, 0.124005
1896.18, 0.123852
1896.87, 0.123801
1897.57, 0.123801
1898.26, 0.123648
1898.96, 0.123343
1899.65, 0.123088
1900.35, 0.123139
1901.05, 0.123292
1901.74, 0.123190
1902.44, 0.122986
1903.14, 0.122986
1903.84, 0.122783
1904.54, 0.122579
1905.24, 0.122477
1905.94, 0.122477
1906.64, 0.122477
1907.34, 0.122579
1908.04, 0.122630
1908.75, 0.122579
1909.45, 0.122426
1910.15, 0.122172
1910.86, 0.122070
1911.56, 0.122172
1912.27, 0.121968
1912.97, 0.121560
1913.68, 0.121408
1914.39, 0.121662
1915.09, 0.121662
1915.8, 0.121510
1916.51, 0.121255
1917.22, 0.121255
1917.93, 0.121306
1918.64, 0.121204
1919.35, 0.120949
1920.06, 0.120847
1920.77, 0.120797
1921.48, 0.120898
1922.19, 0.120797
1922.91, 0.120491
1923.62, 0.120389
1924.33, 0.120440
1925.05, 0.120389
1925.76, 0.120491
1926.48, 0.120287
1927.19, 0.120185
1927.91, 0.120135
1928.63, 0.120287
1929.35, 0.120185
1930.07, 0.119982
1930.78, 0.119880
1931.5, 0.119829
1932.22, 0.119829
1932.94, 0.119931
1933.66, 0.119829
1934.39, 0.119727
1935.11, 0.119727
1935.83, 0.119472
1936.55, 0.119218
1937.28, 0.119371
1938.0, 0.119472
1938.73, 0.119320
1939.45, 0.119167
1940.18, 0.119116
1940.9, 0.118963
1941.63, 0.118861
1942.36, 0.118810
1943.09, 0.118760
1943.81, 0.118709
1944.54, 0.118709
1945.27, 0.118760
1946.0, 0.118607
1946.73, 0.118454
1947.47, 0.118301
1948.2, 0.118301
1948.93, 0.118199
1949.66, 0.118250
1950.4, 0.118199
1951.13, 0.118047
1951.86, 0.118097
1952.6, 0.118047
1953.34, 0.117894
1954.07, 0.118047
1954.81, 0.117996
1955.55, 0.117894
1956.29, 0.117894
1957.02, 0.117792
1957.76, 0.117690
1958.5, 0.117588
1959.24, 0.117588
1959.98, 0.117588
1960.72, 0.117486
1961.47, 0.117334
1962.21, 0.117283
1962.95, 0.117283
1963.7, 0.117130
1964.44, 0.117130
1965.18, 0.117283
1965.93, 0.117232
1966.67, 0.117028
1967.42, 0.116926
1968.17, 0.116824
1968.92, 0.116722
1969.66, 0.116570
1970.41, 0.116315
1971.16, 0.116519
1971.91, 0.116722
1972.66, 0.116722
1973.41, 0.116570
1974.16, 0.116468
1974.92, 0.116315
1975.67, 0.116264
1976.42, 0.116213
1977.18, 0.116060
1977.93, 0.116060
1978.69, 0.116264
1979.44, 0.116213
1980.2, 0.116060
1980.95, 0.116010
1981.71, 0.115959
1982.47, 0.115908
1983.23, 0.116010
1983.99, 0.116111
1984.74, 0.116060
1985.51, 0.115857
1986.27, 0.115857
1987.03, 0.115857
1987.79, 0.115806
1988.55, 0.115602
1989.32, 0.115551
1990.08, 0.115653
1990.84, 0.115602
1991.61, 0.115449
1992.37, 0.115449
1993.14, 0.115347
1993.9, 0.115347
1994.67, 0.115449
1995.44, 0.115449
1996.21, 0.115449
1996.98, 0.115347
1997.75, 0.115093
1998.52, 0.115042
1999.29, 0.115042
2000.06, 0.115093
2000.83, 0.115195
2001.6, 0.115093
2002.38, 0.115144
2003.15, 0.115246
2003.93, 0.115144
2004.7, 0.115195
2005.48, 0.115093
2006.25, 0.115042
2007.03, 0.114940
2007.81, 0.114787
2008.58, 0.114736
2009.36, 0.114787
2010.14, 0.114787
2010.92, 0.114736
2011.7, 0.114685
2012.48, 0.114685
2013.26, 0.114685
2014.05, 0.114584
2014.83, 0.114635
2015.61, 0.114635
2016.4, 0.114736
2017.18, 0.114787
2017.97, 0.114736
2018.75, 0.114635
2019.54, 0.114431
2020.32, 0.114329
2021.11, 0.114125
2021.9, 0.114125
2022.69, 0.114329
2023.48, 0.114380
2024.27, 0.114380
2025.06, 0.114431
2025.85, 0.114329
2026.64, 0.114125
2027.44, 0.114125
2028.23, 0.114125
2029.02, 0.114176
2029.82, 0.114278
2030.61, 0.114176
2031.41, 0.113972
2032.2, 0.114023
2033.0, 0.114074
2033.8, 0.114074
2034.6, 0.113972
2035.4, 0.113871
2036.2, 0.113820
2037.0, 0.113922
2037.8, 0.113922
2038.6, 0.113871
2039.4, 0.113922
2040.2, 0.113769
2041.01, 0.113769
2041.81, 0.113718
2042.61, 0.113616
2043.42, 0.113463
2044.22, 0.113361
2045.03, 0.113412
2045.84, 0.113514
2046.65, 0.113565
2047.46, 0.113667
2048.26, 0.113514
2049.07, 0.113463
2049.88, 0.113463
2050.69, 0.113412
2051.51, 0.113514
2052.32, 0.113565
2053.13, 0.113310
2053.94, 0.113260
2054.76, 0.113310
2055.57, 0.113361
2056.39, 0.113361
2057.2, 0.113260
2058.02, 0.113107
2058.84, 0.113005
2059.66, 0.113056
2060.48, 0.113107
2061.29, 0.113209
2062.11, 0.113209
2062.94, 0.113005
2063.76, 0.112852
2064.58, 0.112903
2065.4, 0.113005
2066.22, 0.113158
2067.05, 0.113107
2067.87, 0.113005
2068.7, 0.112903
2069.52, 0.112852
2070.35, 0.113005
2071.18, 0.113107
2072.0, 0.113056
2072.83, 0.113005
2073.66, 0.113005
2074.49, 0.113005
2075.32, 0.112852
2076.15, 0.112852
2076.98, 0.113107
2077.82, 0.112954
2078.65, 0.112852
2079.48, 0.112903
2080.32, 0.112852
2081.15, 0.112954
2081.99, 0.113107
2082.83, 0.113005
2083.66, 0.112903
2084.5, 0.112903
2085.34, 0.112954
2086.18, 0.112954
2087.02, 0.113056
2087.86, 0.113107
2088.7, 0.112954
2089.54, 0.112903
2090.39, 0.113056
2091.23, 0.113107
2092.07, 0.113056
2092.92, 0.113005
2093.76, 0.112954
2094.61, 0.113005
2095.45, 0.113158
2096.3, 0.113209
2097.15, 0.113310
2098.0, 0.113209
2098.85, 0.113209
2099.7, 0.113310
2100.55, 0.113209
2101.4, 0.113158
2102.25, 0.113361
2103.1, 0.113412
2103.96, 0.113412
2104.81, 0.113514
2105.67, 0.113514
2106.52, 0.113412
2107.38, 0.113514
2108.24, 0.113667
2109.09, 0.113667
2109.95, 0.113718
2110.81, 0.113718
2111.67, 0.113820
2112.53, 0.113871
2113.39, 0.113769
2114.25, 0.113871
2115.12, 0.113922
2115.98, 0.113769
2116.84, 0.113769
2117.71, 0.113972
2118.58, 0.113972
2119.44, 0.114023
2120.31, 0.114125
2121.18, 0.114074
2122.04, 0.113972
2122.91, 0.114074
2123.78, 0.114176
2124.65, 0.114278
2125.52, 0.114431
2126.4, 0.114431
2127.27, 0.114431
2128.14, 0.114482
2129.02, 0.114482
2129.89, 0.114482
2130.77, 0.114533
2131.64, 0.114482
2132.52, 0.114329
2133.4, 0.114329
2134.27, 0.114329
2135.15, 0.114533
2136.03, 0.114736
2136.91, 0.114838
2137.79, 0.114736
2138.68, 0.114685
2139.56, 0.114838
2140.44, 0.114991
2141.33, 0.114889
2142.21, 0.114787
2143.1, 0.114736
2143.99, 0.114736
2144.87, 0.114889
2145.76, 0.115042
2146.65, 0.115144
2147.54, 0.115246
2148.43, 0.115297
2149.32, 0.115347
2150.21, 0.115297
2151.1, 0.115246
2151.99, 0.115347
2152.89, 0.115398
2153.78, 0.115449
2154.68, 0.115500
2155.57, 0.115449
2156.47, 0.115449
2157.37, 0.115500
2158.27, 0.115602
2159.16, 0.115551
2160.06, 0.115704
2160.96, 0.115959
2161.86, 0.115908
2162.77, 0.115908
2163.67, 0.116111
2164.57, 0.116060
2165.48, 0.115959
2166.38, 0.116111
2167.29, 0.116213
2168.2, 0.116111
2169.1, 0.116213
2170.01, 0.116366
2170.92, 0.116315
2171.83, 0.116264
2172.74, 0.116264
2173.65, 0.116315
2174.56, 0.116366
2175.47, 0.116519
2176.39, 0.116621
2177.3, 0.116773
2178.22, 0.116773
2179.13, 0.116722
2180.05, 0.116875
2180.96, 0.116926
2181.88, 0.116824
2182.8, 0.116875
2183.72, 0.117028
2184.64, 0.117028
2185.56, 0.117130
2186.48, 0.117232
2187.41, 0.117283
2188.33, 0.117385
2189.25, 0.117385
2190.18, 0.117486
2191.1, 0.117588
2192.03, 0.117537
2192.96, 0.117537
2193.89, 0.117690
2194.82, 0.117741
2195.74, 0.117741
2196.68, 0.117894
2197.61, 0.118047
2198.54, 0.118250
2199.47, 0.118403
2200.4, 0.118454
2201.34, 0.118454
2202.28, 0.118505
2203.21, 0.118658
2204.15, 0.118709
2205.08, 0.118760
2206.02, 0.118861
2206.96, 0.118861
2207.9, 0.118912
2208.84, 0.119167
2209.78, 0.119320
2210.73, 0.119320
2211.67, 0.119371
2212.61, 0.119574
2213.56, 0.119676
2214.5, 0.119676
2215.45, 0.119778
2216.4, 0.119931
2217.35, 0.120033
2218.3, 0.120033
2219.24, 0.120185
2220.2, 0.120287
2221.15, 0.120389
2222.1, 0.120440
2223.05, 0.120389
2224.0, 0.120338
2224.96, 0.120440
2225.91, 0.120491
2226.87, 0.120644
2227.83, 0.120797
2228.79, 0.120898
2229.74, 0.121000
2230.7, 0.121102
2231.66, 0.121102
2232.63, 0.121255
2233.59, 0.121255
2234.55, 0.121255
2235.51, 0.121255
2236.48, 0.121255
2237.44, 0.121153
2238.41, 0.121153
2239.38, 0.121153
2240.34, 0.121255
2241.31, 0.121357
2242.28, 0.121357
2243.25, 0.121469
2244.22, 0.121525
2245.19, 0.121525
2246.17, 0.121301
2247.14, 0.121301
2248.12, 0.121189
2249.09, 0.121245
2250.07, 0.121580
2251.04, 0.121357
2252.02, 0.121077
2253.0, 0.120853
2253.98, 0.120742
2254.96, 0.120798
2255.94, 0.120350
2256.92, 0.119959
2257.91, 0.119567
2258.89, 0.119399
2259.88, 0.119176
2260.86, 0.118561
2261.85, 0.118225
2262.83, 0.117498
2263.82, 0.116995
2264.81, 0.116939
2265.8, 0.116883
2266.79, 0.116771
2267.78, 0.116491
2268.78, 0.116212
2269.77, 0.115932
2270.76, 0.115596
2271.76, 0.115485
2272.75, 0.115317
2273.75, 0.115149
2274.75, 0.114758
2275.75, 0.114534
2276.75, 0.114534
2277.75, 0.114590
2278.75, 0.114310
2279.75, 0.113639
2280.75, 0.113695
2281.76, 0.113863
2282.76, 0.113863
2283.77, 0.113639
2284.77, 0.113471
2285.78, 0.113304
2286.79, 0.112968
2287.8, 0.112632
2288.81, 0.112185
2289.82, 0.111626
2290.83, 0.111123
2291.84, 0.110731
2292.86, 0.110228
2293.87, 0.109780
2294.89, 0.109165
2295.91, 0.108382
2296.92, 0.107935
2297.94, 0.107376
2298.96, 0.106928
2299.98, 0.106481
2301.0, 0.106033
2302.02, 0.105530
2303.04, 0.104971
2304.07, 0.104915
2305.09, 0.104579
2306.12, 0.104523
2307.15, 0.104579
2308.17, 0.104188
2309.2, 0.104132
2310.23, 0.104188
2311.26, 0.104076
2312.29, 0.104132
2313.32, 0.103964
2314.35, 0.103685
2315.39, 0.103237
2316.42, 0.102566
2317.46, 0.102119
2318.5, 0.101895
2319.53, 0.101392
2320.57, 0.100665
2321.61, 0.100441
2322.65, 0.100049
2323.69, 0.0994900
2324.73, 0.0992660
2325.78, 0.0994340
2326.82, 0.0999930
2327.86, 0.100944
2328.91, 0.102119
2329.96, 0.103573
2331.01, 0.105195
2332.05, 0.107040
2333.1, 0.109277
2334.15, 0.111290
2335.21, 0.113080
2336.26, 0.115205
2337.31, 0.117610
2338.36, 0.119679
2339.42, 0.121525
2340.48, 0.123426
2341.53, 0.125271
2342.59, 0.126837
2343.65, 0.128180
2344.71, 0.129466
2345.77, 0.130640
2346.83, 0.131703
2347.9, 0.132933
2348.96, 0.134108
2350.02, 0.134946
2351.09, 0.135450
2352.16, 0.135953
2353.23, 0.136512
2354.29, 0.137016
2355.36, 0.137183
2356.43, 0.137239
2357.51, 0.137295
2358.58, 0.137183
2359.65, 0.136960
2360.73, 0.136848
2361.8, 0.136401
2362.88, 0.135618
2363.96, 0.135002
2365.03, 0.134611
