Database of Origin, USGS Spectral Database
Sample Description, See USGS database for additional info
Date Added,2016-08-03 21:24:24.685457

Data ID,USGS_cli10          
Sample ID, clinochlore_nmnh83369.5457
Mineral Name, clinochlore
Material Class,Phyllosilicate

Wavelength
1356.75, 0.452178
1357.11, 0.452967
1357.46, 0.454283
1357.82, 0.454020
1358.18, 0.454283
1358.53, 0.453757
1358.89, 0.453625
1359.24, 0.453757
1359.6, 0.453099
1359.96, 0.452967
1360.31, 0.453230
1360.67, 0.453625
1361.03, 0.452967
1361.39, 0.453230
1361.74, 0.453494
1362.1, 0.453888
1362.46, 0.453099
1362.82, 0.451914
1363.18, 0.452836
1363.53, 0.453230
1363.89, 0.453494
1364.25, 0.452967
1364.61, 0.452178
1364.97, 0.452441
1365.33, 0.451914
1365.69, 0.451388
1366.05, 0.451520
1366.41, 0.451256
1366.77, 0.450993
1367.13, 0.450598
1367.49, 0.450204
1367.85, 0.450467
1368.21, 0.451125
1368.57, 0.450467
1368.93, 0.449019
1369.3, 0.449414
1369.66, 0.450335
1370.02, 0.450335
1370.38, 0.449546
1370.74, 0.447703
1371.11, 0.447440
1371.47, 0.447703
1371.83, 0.447572
1372.19, 0.447703
1372.56, 0.447572
1372.92, 0.447572
1373.29, 0.447835
1373.65, 0.447045
1374.01, 0.446124
1374.38, 0.446519
1374.74, 0.446387
1375.11, 0.445466
1375.47, 0.445334
1375.84, 0.444545
1376.2, 0.444940
1376.57, 0.446256
1376.93, 0.445203
1377.3, 0.444808
1377.67, 0.444282
1378.03, 0.443624
1378.4, 0.443755
1378.76, 0.444150
1379.13, 0.443624
1379.5, 0.442044
1379.87, 0.440728
1380.23, 0.440202
1380.6, 0.439676
1380.97, 0.439939
1381.34, 0.440070
1381.7, 0.438491
1382.07, 0.437570
1382.44, 0.436517
1382.81, 0.434675
1383.18, 0.433227
1383.55, 0.430858
1383.92, 0.427568
1384.29, 0.423752
1384.66, 0.418751
1385.03, 0.413487
1385.4, 0.407434
1385.77, 0.401248
1386.14, 0.395063
1386.51, 0.388220
1386.88, 0.382824
1387.25, 0.379271
1387.62, 0.374665
1387.99, 0.370059
1388.36, 0.367032
1388.74, 0.364006
1389.11, 0.362821
1389.48, 0.362821
1389.85, 0.362295
1390.23, 0.361505
1390.6, 0.362953
1390.97, 0.364137
1391.35, 0.364664
1391.72, 0.367296
1392.09, 0.371244
1392.47, 0.373086
1392.84, 0.375718
1393.21, 0.379008
1393.59, 0.381903
1393.96, 0.384535
1394.34, 0.387562
1394.71, 0.390194
1395.09, 0.392300
1395.46, 0.394537
1395.84, 0.396511
1396.22, 0.398090
1396.59, 0.400459
1396.97, 0.403222
1397.35, 0.405328
1397.72, 0.406644
1398.1, 0.407697
1398.48, 0.409408
1398.85, 0.410987
1399.23, 0.412171
1399.61, 0.411645
1399.99, 0.412040
1400.37, 0.413487
1400.74, 0.413750
1401.12, 0.414277
1401.5, 0.414672
1401.88, 0.414672
1402.26, 0.413092
1402.64, 0.413356
1403.02, 0.413487
1403.4, 0.413092
1403.78, 0.413882
1404.16, 0.414408
1404.54, 0.413882
1404.92, 0.413224
1405.3, 0.413224
1405.68, 0.412698
1406.06, 0.411513
1406.44, 0.411645
1406.83, 0.411382
1407.21, 0.409934
1407.59, 0.408881
1407.97, 0.408618
1408.35, 0.408750
1408.74, 0.408355
1409.12, 0.408750
1409.5, 0.408486
1409.89, 0.407170
1410.27, 0.407170
1410.65, 0.406512
1411.04, 0.405854
1411.42, 0.405328
1411.81, 0.405591
1412.19, 0.406249
1412.58, 0.405986
1412.96, 0.405854
1413.35, 0.405723
1413.73, 0.405065
1414.12, 0.404670
1414.5, 0.403749
1414.89, 0.403354
1415.28, 0.404012
1415.66, 0.403880
1416.05, 0.402828
1416.44, 0.402828
1416.82, 0.402959
1417.21, 0.402433
1417.6, 0.401643
1417.98, 0.401380
1418.37, 0.401775
1418.76, 0.401380
1419.15, 0.401248
1419.54, 0.401512
1419.93, 0.401512
1420.32, 0.401775
1420.71, 0.400722
1421.09, 0.400196
1421.48, 0.399669
1421.88, 0.399538
1422.27, 0.399143
1422.66, 0.398748
1423.05, 0.398880
1423.44, 0.398353
1423.83, 0.397958
1424.22, 0.397564
1424.61, 0.396774
1425.0, 0.396642
1425.39, 0.396642
1425.78, 0.397169
1426.18, 0.397300
1426.57, 0.397432
1426.96, 0.396379
1427.36, 0.395721
1427.75, 0.395853
1428.14, 0.395721
1428.54, 0.394142
1428.93, 0.393484
1429.32, 0.394405
1429.72, 0.395195
1430.11, 0.393879
1430.51, 0.393616
1430.9, 0.392958
1431.3, 0.392958
1431.69, 0.392826
1432.09, 0.392431
1432.48, 0.392826
1432.88, 0.393221
1433.28, 0.392694
1433.67, 0.393484
1434.07, 0.394405
1434.46, 0.394010
1434.86, 0.394142
1435.26, 0.394010
1435.66, 0.393221
1436.05, 0.393221
1436.45, 0.394142
1436.85, 0.393879
1437.25, 0.393484
1437.65, 0.392958
1438.05, 0.392826
1438.44, 0.394142
1438.84, 0.394537
1439.24, 0.394010
1439.64, 0.393616
1440.04, 0.394274
1440.44, 0.395458
1440.84, 0.394932
1441.24, 0.394142
1441.65, 0.393879
1442.05, 0.394142
1442.45, 0.394010
1442.85, 0.393616
1443.25, 0.394668
1443.65, 0.395063
1444.05, 0.394800
1444.46, 0.395063
1444.86, 0.394932
1445.26, 0.395195
1445.67, 0.395195
1446.07, 0.395590
1446.47, 0.396116
1446.88, 0.396379
1447.28, 0.396248
1447.68, 0.394932
1448.09, 0.395590
1448.49, 0.396379
1448.9, 0.396116
1449.3, 0.396379
1449.71, 0.396511
1450.11, 0.396379
1450.52, 0.396511
1450.93, 0.397169
1451.33, 0.398090
1451.74, 0.397827
1452.14, 0.397827
1452.55, 0.398222
1452.96, 0.398353
1453.36, 0.398880
1453.77, 0.399801
1454.18, 0.399538
1454.59, 0.399143
1455.0, 0.399143
1455.41, 0.399669
1455.81, 0.400064
1456.22, 0.399669
1456.63, 0.399801
1457.04, 0.400722
1457.45, 0.400327
1457.86, 0.399538
1458.27, 0.399801
1458.68, 0.400459
1459.09, 0.401248
1459.5, 0.401117
1459.91, 0.400722
1460.32, 0.400722
1460.74, 0.400196
1461.15, 0.400590
1461.56, 0.401775
1461.97, 0.402301
1462.39, 0.402696
1462.8, 0.403354
1463.21, 0.403222
1463.62, 0.402959
1464.04, 0.402696
1464.45, 0.402828
1464.86, 0.403091
1465.28, 0.402564
1465.69, 0.401643
1466.11, 0.402433
1466.52, 0.403749
1466.94, 0.403749
1467.35, 0.403091
1467.77, 0.403091
1468.18, 0.403222
1468.6, 0.403749
1469.02, 0.404144
1469.43, 0.404144
1469.85, 0.404275
1470.27, 0.403749
1470.68, 0.403749
1471.1, 0.404538
1471.52, 0.405196
1471.94, 0.405065
1472.35, 0.404802
1472.77, 0.404670
1473.19, 0.404275
1473.61, 0.403880
1474.03, 0.403222
1474.45, 0.404275
1474.87, 0.405196
1475.29, 0.405591
1475.71, 0.404802
1476.13, 0.404670
1476.55, 0.404275
1476.97, 0.404144
1477.39, 0.405460
1477.81, 0.406512
1478.23, 0.405986
1478.65, 0.405723
1479.07, 0.405196
1479.5, 0.404933
1479.92, 0.405328
1480.34, 0.405196
1480.76, 0.404933
1481.19, 0.404538
1481.61, 0.404144
1482.03, 0.404933
1482.46, 0.405065
1482.88, 0.405196
1483.31, 0.405328
1483.73, 0.406118
1484.16, 0.406249
1484.58, 0.405591
1485.01, 0.405723
1485.43, 0.405854
1485.86, 0.405591
1486.28, 0.405328
1486.71, 0.405723
1487.14, 0.406512
1487.56, 0.406512
1487.99, 0.406907
1488.42, 0.407302
1488.84, 0.406776
1489.27, 0.406644
1489.7, 0.407302
1490.13, 0.407039
1490.56, 0.405986
1490.98, 0.405591
1491.41, 0.405723
1491.84, 0.406249
1492.27, 0.406249
1492.7, 0.406118
1493.13, 0.406381
1493.56, 0.406381
1493.99, 0.406381
1494.42, 0.406907
1494.85, 0.406907
1495.29, 0.406249
1495.72, 0.406512
1496.15, 0.406381
1496.58, 0.406644
1497.01, 0.406776
1497.44, 0.406249
1497.88, 0.406118
1498.31, 0.406776
1498.74, 0.406776
1499.18, 0.406512
1499.61, 0.406381
1500.04, 0.406512
1500.48, 0.406907
1500.91, 0.407302
1501.35, 0.407697
1501.78, 0.407828
1502.22, 0.407170
1502.65, 0.406512
1503.09, 0.406381
1503.53, 0.406776
1503.96, 0.407302
1504.4, 0.407170
1504.83, 0.406907
1505.27, 0.406776
1505.71, 0.407170
1506.15, 0.407170
1506.58, 0.406907
1507.02, 0.407302
1507.46, 0.408092
1507.9, 0.408355
1508.34, 0.408223
1508.78, 0.407828
1509.21, 0.407960
1509.66, 0.407960
1510.09, 0.408618
1510.53, 0.409408
1510.97, 0.409144
1511.42, 0.408355
1511.86, 0.408223
1512.3, 0.408486
1512.74, 0.408355
1513.18, 0.409408
1513.62, 0.409802
1514.06, 0.408881
1514.51, 0.408486
1514.95, 0.408750
1515.39, 0.408618
1515.83, 0.408750
1516.28, 0.409013
1516.72, 0.409671
1517.16, 0.410066
1517.61, 0.410197
1518.05, 0.410329
1518.5, 0.410855
1518.94, 0.411382
1519.39, 0.410987
1519.83, 0.410197
1520.28, 0.410066
1520.73, 0.410592
1521.17, 0.410724
1521.62, 0.410724
1522.07, 0.411118
1522.51, 0.410987
1522.96, 0.411118
1523.41, 0.411513
1523.85, 0.411513
1524.3, 0.411250
1524.75, 0.411118
1525.2, 0.411513
1525.65, 0.412434
1526.1, 0.412566
1526.55, 0.411776
1527.0, 0.411908
1527.45, 0.412171
1527.9, 0.412171
1528.35, 0.412303
1528.8, 0.412171
1529.25, 0.412434
1529.7, 0.412698
1530.15, 0.412961
1530.6, 0.413092
1531.05, 0.412303
1531.51, 0.412040
1531.96, 0.413356
1532.41, 0.414408
1532.87, 0.414540
1533.32, 0.413882
1533.77, 0.413619
1534.23, 0.413882
1534.68, 0.414277
1535.14, 0.414540
1535.59, 0.414540
1536.05, 0.414672
1536.5, 0.415330
1536.96, 0.415856
1537.41, 0.415724
1537.87, 0.415593
1538.32, 0.416251
1538.78, 0.416777
1539.24, 0.416251
1539.7, 0.415856
1540.15, 0.416777
1540.61, 0.417040
1541.07, 0.416646
1541.53, 0.417040
1541.98, 0.417698
1542.44, 0.417962
1542.9, 0.417962
1543.36, 0.417830
1543.82, 0.417304
1544.28, 0.417698
1544.74, 0.417830
1545.2, 0.417567
1545.66, 0.418356
1546.12, 0.419541
1546.59, 0.420462
1547.05, 0.420199
1547.51, 0.419804
1547.97, 0.419146
1548.43, 0.419672
1548.9, 0.420594
1549.36, 0.420988
1549.82, 0.421515
1550.29, 0.421910
1550.75, 0.421910
1551.21, 0.421383
1551.68, 0.421120
1552.14, 0.421778
1552.61, 0.422173
1553.07, 0.422173
1553.54, 0.422699
1554.0, 0.423226
1554.47, 0.423357
1554.93, 0.423226
1555.4, 0.423094
1555.87, 0.422831
1556.34, 0.423357
1556.8, 0.423620
1557.27, 0.424015
1557.74, 0.424410
1558.21, 0.424542
1558.68, 0.424936
1559.14, 0.425068
1559.61, 0.425200
1560.08, 0.425594
1560.55, 0.425989
1561.02, 0.426384
1561.49, 0.427042
1561.96, 0.427042
1562.43, 0.427042
1562.9, 0.427305
1563.38, 0.427700
1563.85, 0.428226
1564.32, 0.428358
1564.79, 0.427963
1565.26, 0.428226
1565.74, 0.428753
1566.21, 0.428753
1566.68, 0.428753
1567.16, 0.429148
1567.63, 0.429542
1568.1, 0.429806
1568.58, 0.429937
1569.05, 0.430464
1569.53, 0.430858
1570.0, 0.430858
1570.48, 0.430990
1570.96, 0.430990
1571.43, 0.430990
1571.91, 0.431385
1572.39, 0.431253
1572.86, 0.431648
1573.34, 0.432174
1573.82, 0.432832
1574.3, 0.432964
1574.77, 0.433227
1575.25, 0.433622
1575.73, 0.433359
1576.21, 0.433096
1576.69, 0.433359
1577.17, 0.434148
1577.65, 0.434543
1578.13, 0.434148
1578.61, 0.434017
1579.09, 0.434675
1579.57, 0.434806
1580.05, 0.434280
1580.54, 0.434412
1581.02, 0.435070
1581.5, 0.435859
1581.98, 0.435991
1582.47, 0.435859
1582.95, 0.436122
1583.43, 0.436780
1583.92, 0.436912
1584.4, 0.437044
1584.88, 0.437175
1585.37, 0.437570
1585.85, 0.437438
1586.34, 0.437702
1586.82, 0.437965
1587.31, 0.437833
1587.8, 0.438096
1588.28, 0.438096
1588.77, 0.437833
1589.26, 0.438623
1589.74, 0.439281
1590.23, 0.439281
1590.72, 0.439281
1591.21, 0.439807
1591.7, 0.439807
1592.19, 0.440202
1592.67, 0.440334
1593.16, 0.439939
1593.65, 0.440465
1594.14, 0.440860
1594.63, 0.441255
1595.12, 0.441650
1595.61, 0.442044
1596.11, 0.442308
1596.6, 0.441518
1597.09, 0.441255
1597.58, 0.441650
1598.08, 0.442308
1598.57, 0.442966
1599.06, 0.443360
1599.55, 0.443624
1600.05, 0.443755
1600.54, 0.443887
1601.04, 0.444018
1601.53, 0.443887
1602.03, 0.444018
1602.52, 0.443887
1603.02, 0.444413
1603.51, 0.445598
1604.01, 0.445466
1604.5, 0.445466
1605.0, 0.445334
1605.5, 0.445071
1606.0, 0.445729
1606.49, 0.445992
1606.99, 0.446124
1607.49, 0.446519
1607.99, 0.447177
1608.49, 0.447440
1608.99, 0.447440
1609.49, 0.447440
1609.99, 0.448098
1610.49, 0.448756
1610.99, 0.448888
1611.49, 0.448756
1611.99, 0.448230
1612.49, 0.448624
1612.99, 0.449151
1613.49, 0.449282
1614.0, 0.449282
1614.5, 0.449546
1615.0, 0.449940
1615.51, 0.450204
1616.01, 0.450467
1616.51, 0.451125
1617.02, 0.450993
1617.52, 0.451256
1618.03, 0.451520
1618.53, 0.451783
1619.04, 0.452046
1619.54, 0.452046
1620.05, 0.452309
1620.55, 0.452967
1621.06, 0.452704
1621.57, 0.452836
1622.08, 0.452836
1622.58, 0.452704
1623.09, 0.453625
1623.6, 0.454546
1624.11, 0.454020
1624.62, 0.453888
1625.13, 0.454152
1625.64, 0.453888
1626.15, 0.454152
1626.66, 0.454546
1627.17, 0.454810
1627.68, 0.455204
1628.19, 0.455599
1628.7, 0.455599
1629.21, 0.455468
1629.72, 0.455468
1630.24, 0.455994
1630.75, 0.455862
1631.26, 0.455468
1631.78, 0.455862
1632.29, 0.456784
1632.8, 0.457178
1633.32, 0.456915
1633.83, 0.456389
1634.35, 0.457047
1634.86, 0.458231
1635.38, 0.458363
1635.9, 0.458231
1636.41, 0.458231
1636.93, 0.458494
1637.45, 0.458231
1637.96, 0.457705
1638.48, 0.458363
1639.0, 0.459152
1639.52, 0.459547
1640.04, 0.459152
1640.56, 0.459021
1641.08, 0.458889
1641.59, 0.459284
1642.11, 0.460074
1642.63, 0.459942
1643.16, 0.460074
1643.68, 0.460863
1644.2, 0.460732
1644.72, 0.460863
1645.24, 0.461258
1645.76, 0.461390
1646.29, 0.460863
1646.81, 0.461126
1647.33, 0.461653
1647.86, 0.461258
1648.38, 0.461258
1648.9, 0.461916
1649.43, 0.462706
1649.95, 0.462837
1650.48, 0.462574
1651.0, 0.462179
1651.53, 0.461653
1652.06, 0.462311
1652.58, 0.462574
1653.11, 0.462442
1653.64, 0.461916
1654.17, 0.462837
1654.69, 0.463495
1655.22, 0.463364
1655.75, 0.463890
1656.28, 0.463758
1656.81, 0.463495
1657.34, 0.464153
1657.87, 0.463890
1658.4, 0.463495
1658.93, 0.463495
1659.46, 0.464153
1659.99, 0.464943
1660.52, 0.464943
1661.05, 0.464548
1661.59, 0.464680
1662.12, 0.464943
1662.65, 0.465601
1663.19, 0.465469
1663.72, 0.465469
1664.26, 0.465338
1664.79, 0.465601
1665.32, 0.465732
1665.86, 0.465864
1666.39, 0.465996
1666.93, 0.465864
1667.47, 0.466259
1668.0, 0.466390
1668.54, 0.466390
1669.08, 0.466522
1669.61, 0.467312
1670.15, 0.467180
1670.69, 0.466917
1671.23, 0.466917
1671.77, 0.467312
1672.31, 0.467970
1672.85, 0.468101
1673.39, 0.468496
1673.93, 0.468496
1674.47, 0.468364
1675.01, 0.468496
1675.55, 0.468759
1676.09, 0.468628
1676.64, 0.469154
1677.18, 0.470075
1677.72, 0.470207
1678.26, 0.469812
1678.81, 0.469549
1679.35, 0.470075
1679.89, 0.470075
1680.44, 0.469944
1680.98, 0.470207
1681.53, 0.470075
1682.07, 0.469944
1682.62, 0.470470
1683.17, 0.470865
1683.71, 0.471128
1684.26, 0.471391
1684.81, 0.471128
1685.36, 0.471523
1685.9, 0.471918
1686.45, 0.471918
1687.0, 0.472049
1687.55, 0.471918
1688.1, 0.471654
1688.65, 0.472312
1689.2, 0.472839
1689.75, 0.472576
1690.3, 0.472576
1690.85, 0.472839
1691.41, 0.472839
1691.96, 0.473628
1692.51, 0.474155
1693.06, 0.473628
1693.61, 0.473365
1694.17, 0.473892
1694.72, 0.474023
1695.28, 0.473365
1695.83, 0.473628
1696.39, 0.474550
1696.94, 0.474813
1697.5, 0.474550
1698.05, 0.474681
1698.61, 0.475076
1699.17, 0.475076
1699.72, 0.474944
1700.28, 0.474944
1700.84, 0.474681
1701.4, 0.474944
1701.95, 0.474944
1702.51, 0.474681
1703.07, 0.474813
1703.63, 0.475208
1704.19, 0.475602
1704.75, 0.475997
1705.31, 0.476392
1705.88, 0.476392
1706.44, 0.476787
1707.0, 0.476655
1707.56, 0.476524
1708.12, 0.476392
1708.69, 0.476524
1709.25, 0.476787
1709.81, 0.477182
1710.38, 0.476787
1710.94, 0.476787
1711.51, 0.477445
1712.07, 0.477708
1712.64, 0.477708
1713.2, 0.478103
1713.77, 0.477840
1714.34, 0.477840
1714.9, 0.477971
1715.47, 0.477971
1716.04, 0.478234
1716.61, 0.478629
1717.18, 0.478892
1717.74, 0.478498
1718.31, 0.478366
1718.88, 0.478366
1719.45, 0.478498
1720.02, 0.479024
1720.59, 0.478892
1721.17, 0.479156
1721.74, 0.479024
1722.31, 0.478892
1722.88, 0.479550
1723.45, 0.480077
1724.03, 0.479682
1724.6, 0.479287
1725.18, 0.479024
1725.75, 0.479419
1726.33, 0.480472
1726.9, 0.480603
1727.48, 0.480340
1728.05, 0.480603
1728.63, 0.480735
1729.2, 0.480472
1729.78, 0.479945
1730.36, 0.480077
1730.94, 0.480735
1731.51, 0.480866
1732.09, 0.480472
1732.67, 0.480866
1733.25, 0.481393
1733.83, 0.481261
1734.41, 0.480866
1734.99, 0.481130
1735.57, 0.481524
1736.15, 0.481393
1736.73, 0.481261
1737.32, 0.480998
1737.9, 0.481130
1738.48, 0.481393
1739.07, 0.481261
1739.65, 0.481656
1740.23, 0.481919
1740.82, 0.481919
1741.4, 0.482182
1741.99, 0.482182
1742.57, 0.482051
1743.16, 0.482182
1743.74, 0.482446
1744.33, 0.482709
1744.92, 0.482709
1745.51, 0.483104
1746.09, 0.483104
1746.68, 0.482972
1747.27, 0.482972
1747.86, 0.482840
1748.45, 0.482972
1749.04, 0.483367
1749.63, 0.483104
1750.22, 0.483367
1750.81, 0.483498
1751.4, 0.483367
1751.99, 0.483893
1752.59, 0.484025
1753.18, 0.484156
1753.77, 0.483893
1754.37, 0.483367
1754.96, 0.483235
1755.56, 0.483104
1756.15, 0.483498
1756.74, 0.484551
1757.34, 0.484683
1757.94, 0.484551
1758.53, 0.484814
1759.13, 0.484946
1759.73, 0.484683
1760.32, 0.484551
1760.92, 0.485209
1761.52, 0.485341
1762.12, 0.485472
1762.72, 0.485867
1763.32, 0.485736
1763.92, 0.485209
1764.52, 0.485341
1765.12, 0.485867
1765.72, 0.485999
1766.32, 0.485736
1766.92, 0.485472
1767.53, 0.485078
1768.13, 0.485472
1768.73, 0.486130
1769.34, 0.486262
1769.94, 0.486394
1770.55, 0.486130
1771.15, 0.486525
1771.76, 0.486920
1772.36, 0.486657
1772.97, 0.486788
1773.57, 0.486788
1774.18, 0.486657
1774.79, 0.486657
1775.4, 0.486525
1776.0, 0.486657
1776.61, 0.487183
1777.22, 0.487578
1777.83, 0.487578
1778.44, 0.487315
1779.05, 0.486920
1779.66, 0.486657
1780.27, 0.486920
1780.88, 0.487052
1781.5, 0.487183
1782.11, 0.487841
1782.72, 0.487841
1783.33, 0.487183
1783.95, 0.487315
1784.56, 0.487578
1785.18, 0.486920
1785.79, 0.486788
1786.41, 0.487183
1787.02, 0.487446
1787.64, 0.487315
1788.26, 0.487183
1788.87, 0.486788
1789.49, 0.487315
1790.11, 0.487841
1790.73, 0.487710
1791.35, 0.487710
1791.96, 0.487841
1792.58, 0.487973
1793.21, 0.487841
1793.83, 0.487446
1794.45, 0.487183
1795.07, 0.487315
1795.69, 0.487315
1796.31, 0.487183
1796.93, 0.486788
1797.56, 0.486788
1798.18, 0.486657
1798.8, 0.486920
1799.43, 0.487183
1800.05, 0.486920
1800.68, 0.486525
1801.3, 0.486394
1801.93, 0.486262
1802.56, 0.486525
1803.18, 0.486657
1803.81, 0.486394
1804.44, 0.486262
1805.07, 0.486394
1805.7, 0.486394
1806.33, 0.486262
1806.95, 0.486262
1807.58, 0.485736
1808.22, 0.485604
1808.85, 0.485999
1809.48, 0.486262
1810.11, 0.486262
1810.74, 0.485867
1811.38, 0.485472
1812.01, 0.485604
1812.64, 0.485472
1813.28, 0.485341
1813.91, 0.485078
1814.55, 0.485209
1815.18, 0.485604
1815.82, 0.485078
1816.45, 0.485209
1817.09, 0.485472
1817.73, 0.485472
1818.36, 0.485472
1819.0, 0.485209
1819.64, 0.485209
1820.28, 0.484946
1820.92, 0.484420
1821.56, 0.484551
1822.2, 0.484814
1822.84, 0.484683
1823.48, 0.484156
1824.12, 0.484288
1824.76, 0.484156
1825.41, 0.484814
1826.05, 0.484683
1826.69, 0.483498
1827.34, 0.483498
1827.98, 0.484420
1828.63, 0.484814
1829.27, 0.484288
1829.92, 0.483498
1830.56, 0.483498
1831.21, 0.483498
1831.86, 0.483367
1832.5, 0.483367
1833.15, 0.483104
1833.8, 0.483104
1834.45, 0.483235
1835.1, 0.482972
1835.75, 0.482972
1836.4, 0.482446
1837.05, 0.482446
1837.7, 0.482446
1838.35, 0.481788
1839.01, 0.481656
1839.66, 0.481524
1840.31, 0.481261
1840.96, 0.481524
1841.62, 0.481261
1842.27, 0.480472
1842.93, 0.480472
1843.58, 0.480472
1844.24, 0.480208
1844.9, 0.480077
1845.55, 0.479945
1846.21, 0.480077
1846.87, 0.479682
1847.53, 0.479550
1848.18, 0.479287
1848.84, 0.478629
1849.5, 0.478761
1850.16, 0.478498
1850.82, 0.478234
1851.48, 0.478103
1852.14, 0.477445
1852.81, 0.477050
1853.47, 0.477182
1854.13, 0.476392
1854.8, 0.476129
1855.46, 0.476524
1856.12, 0.476655
1856.79, 0.476260
1857.45, 0.476129
1858.12, 0.476260
1858.79, 0.476392
1859.45, 0.476260
1860.12, 0.475471
1860.79, 0.474944
1861.46, 0.474813
1862.12, 0.474550
1862.79, 0.474286
1863.46, 0.474286
1864.13, 0.474418
1864.8, 0.474155
1865.48, 0.473892
