Database of Origin, USGS Spectral Database
Sample Description, See USGS database for additional info
Date Added,2016-08-10 03:01:35.379019

Data ID,USGS_hyp15          
Sample ID, hypersthene_pyx02.10782
Mineral Name, hypersthene
Material Class,Inosilicate

Wavelength
229.1, 0.0503220
236.1, 0.0590370
242.1, 0.0731720
248.1, 0.0800680
253.6, 0.0876450
258.6, 0.0951310
263.6, 0.100439
268.6, 0.106494
273.1, 0.113614
277.1, 0.119482
281.1, 0.128124
285.1, 0.137210
289.1, 0.146146
293.1, 0.155319
297.1, 0.164270
301.1, 0.175505
305.1, 0.186094
309.1, 0.196726
313.1, 0.206469
317.1, 0.217065
321.1, 0.228554
325.1, 0.239575
329.1, 0.250345
333.1, 0.260683
337.1, 0.270346
341.1, 0.281402
345.1, 0.291553
349.1, 0.302984
353.1, 0.317447
357.1, 0.328707
360.6, 0.339550
363.6, 0.348990
366.6, 0.356894
369.6, 0.365972
372.6, 0.373508
375.6, 0.382039
378.6, 0.390651
381.1, 0.397399
383.1, 0.400339
385.1, 0.405261
387.1, 0.410487
389.1, 0.414159
391.1, 0.418871
393.1, 0.423095
395.1, 0.426892
397.1, 0.430965
399.1, 0.434594
401.1, 0.438090
403.1, 0.441164
405.1, 0.444681
407.1, 0.448506
409.1, 0.450665
411.1, 0.455642
412.8, 0.457666
415.8, 0.463549
418.8, 0.466252
421.8, 0.471703
424.8, 0.475695
427.8, 0.479694
430.8, 0.484836
433.8, 0.489658
436.8, 0.494570
439.8, 0.498764
442.8, 0.501768
445.8, 0.503901
448.8, 0.508950
451.3, 0.511560
453.3, 0.512774
455.3, 0.515349
457.3, 0.516339
459.3, 0.518428
461.3, 0.520155
463.3, 0.521650
465.3, 0.524297
467.3, 0.525335
469.3, 0.526761
471.3, 0.529261
473.3, 0.530851
475.3, 0.532981
477.3, 0.534588
479.3, 0.535377
481.3, 0.537595
483.3, 0.540216
485.3, 0.541741
487.3, 0.544036
489.3, 0.545821
491.3, 0.546968
493.3, 0.549236
495.3, 0.551482
497.3, 0.552454
499.3, 0.555736
501.3, 0.556510
503.3, 0.558366
505.3, 0.558197
507.3, 0.557582
509.3, 0.562887
511.3, 0.565803
513.3, 0.566789
515.3, 0.569082
517.3, 0.570025
519.3, 0.571375
521.3, 0.572492
523.3, 0.574203
525.3, 0.575141
527.3, 0.576824
529.3, 0.577422
531.3, 0.578225
533.3, 0.578881
535.3, 0.579092
537.3, 0.580199
539.3, 0.581036
541.3, 0.582088
543.3, 0.581795
545.3, 0.583606
547.3, 0.583551
549.3, 0.582900
551.3, 0.584278
553.3, 0.584946
555.3, 0.586034
557.3, 0.587064
559.3, 0.588375
561.3, 0.586964
563.3, 0.589147
565.3, 0.589860
567.3, 0.590786
569.3, 0.590975
571.3, 0.592232
573.3, 0.592489
575.3, 0.592893
577.3, 0.593875
579.3, 0.594140
581.3, 0.594286
583.3, 0.595821
585.3, 0.595922
587.3, 0.595692
589.3, 0.596868
591.3, 0.597811
593.3, 0.596046
595.3, 0.596672
597.3, 0.598077
599.3, 0.598069
601.1, 0.598153
602.7, 0.598107
604.3, 0.598719
605.9, 0.598662
607.5, 0.599124
609.1, 0.598490
610.7, 0.598745
612.3, 0.599125
613.9, 0.599655
615.5, 0.599629
617.1, 0.599798
618.7, 0.600392
620.3, 0.600002
621.9, 0.600770
623.5, 0.600702
625.1, 0.602243
626.7, 0.602015
628.3, 0.601713
629.9, 0.601739
631.7, 0.602156
633.7, 0.601701
635.7, 0.603376
637.7, 0.603382
639.7, 0.603464
641.7, 0.604421
643.7, 0.604189
645.7, 0.604464
647.7, 0.604762
649.7, 0.606322
651.7, 0.604983
653.7, 0.604946
655.7, 0.606366
657.7, 0.606001
659.7, 0.606539
661.7, 0.607722
663.7, 0.607912
665.7, 0.607584
667.7, 0.608406
670.2, 0.607965
673.2, 0.609069
676.2, 0.608925
679.2, 0.609577
682.2, 0.610058
685.2, 0.611275
688.2, 0.611341
691.2, 0.610647
694.2, 0.611335
697.2, 0.611918
700.2, 0.611862
702.0, 0.612791
704.0, 0.612420
706.0, 0.612805
708.0, 0.612197
710.0, 0.612906
712.0, 0.612891
714.0, 0.613185
716.0, 0.612853
718.0, 0.613548
720.0, 0.612271
722.0, 0.613030
724.0, 0.613032
726.0, 0.613198
728.0, 0.613074
730.0, 0.612833
732.0, 0.612589
734.0, 0.612370
736.0, 0.611123
738.0, 0.611723
740.0, 0.611282
742.0, 0.611378
744.0, 0.611257
746.0, 0.610612
748.0, 0.609760
750.5, 0.608752
753.5, 0.606831
756.5, 0.605830
759.5, 0.605506
762.5, 0.603236
765.5, 0.601385
768.5, 0.598954
771.5, 0.596485
774.5, 0.594969
777.5, 0.591477
781.0, 0.588609
785.0, 0.582925
789.0, 0.578353
793.0, 0.573503
797.0, 0.567853
801.5, 0.561156
806.5, 0.552670
811.5, 0.543774
816.5, 0.534772
822.0, 0.525006
828.0, 0.512247
835.0, 0.498508
843.0, 0.482900
851.0, 0.465382
859.0, 0.452681
871.0, 0.431696
883.0, 0.416090
894.0, 0.408043
904.0, 0.400724
914.0, 0.396016
924.0, 0.397610
933.0, 0.403488
941.0, 0.411046
949.0, 0.418363
957.0, 0.429359
964.0, 0.443472
970.0, 0.455695
976.0, 0.468070
982.0, 0.479126
988.0, 0.490541
994.0, 0.503154
1000.0, 0.517380
1006.0, 0.528377
1012.0, 0.540652
1018.0, 0.551589
1023.5, 0.563219
1028.5, 0.569626
1033.5, 0.573999
1038.5, 0.582382
1043.5, 0.588304
1048.5, 0.593104
1053.5, 0.598265
1058.5, 0.602419
1063.5, 0.605307
1068.5, 0.608056
1073.5, 0.612241
1078.5, 0.613591
1083.5, 0.616232
1088.5, 0.619883
1093.5, 0.620635
1098.5, 0.620941
1103.5, 0.622595
1108.5, 0.623305
1113.5, 0.624295
1118.5, 0.626235
1123.5, 0.627011
1128.5, 0.627724
1133.5, 0.627464
1138.5, 0.628563
1143.5, 0.629014
1148.5, 0.629083
1153.5, 0.629683
1158.5, 0.630485
1163.5, 0.629685
1168.5, 0.631450
1173.5, 0.631202
1178.5, 0.631866
1183.5, 0.631561
1188.5, 0.633336
1193.5, 0.632677
1198.5, 0.634210
1203.5, 0.633644
1208.5, 0.632814
1213.5, 0.635271
1218.5, 0.635908
1223.5, 0.635073
1228.5, 0.635747
1233.5, 0.637910
1238.5, 0.636388
1243.5, 0.636686
1248.5, 0.638378
1253.5, 0.638696
1258.5, 0.638097
1263.5, 0.638527
1268.5, 0.638721
1273.5, 0.638629
1278.5, 0.640192
1283.5, 0.638139
1288.5, 0.639162
1293.5, 0.640426
1298.5, 0.639111
1303.5, 0.639523
1308.5, 0.641575
1313.5, 0.639862
1318.5, 0.640661
1323.5, 0.639840
1328.5, 0.641066
1333.5, 0.639974
1338.5, 0.639927
1343.5, 0.640245
1348.5, 0.640167
1353.5, 0.640242
1358.5, 0.638940
1363.5, 0.638584
1368.5, 0.639278
1373.5, 0.636484
1378.5, 0.636777
1383.5, 0.633353
1388.5, 0.624994
1393.5, 0.619865
1398.5, 0.625940
1403.5, 0.631697
1408.5, 0.630147
1413.5, 0.630839
1418.5, 0.631203
1423.5, 0.630273
1428.5, 0.630749
1433.5, 0.629556
1438.5, 0.629435
1443.5, 0.627341
1448.5, 0.627727
1453.5, 0.626654
1458.5, 0.626025
1463.5, 0.624067
1468.5, 0.625610
1473.5, 0.623528
1478.5, 0.622638
1483.5, 0.618541
1488.5, 0.617797
1493.5, 0.617875
1498.5, 0.618050
1503.5, 0.615245
1508.5, 0.613218
1513.5, 0.610196
1518.5, 0.609583
1523.5, 0.608920
1528.5, 0.609012
1534.0, 0.605154
1540.0, 0.604100
1546.0, 0.600738
1552.0, 0.599195
1558.0, 0.596439
1564.0, 0.594739
1570.5, 0.592618
1577.5, 0.589780
1584.5, 0.586065
1591.5, 0.584817
1598.5, 0.581190
1605.5, 0.577909
1612.5, 0.574588
1619.5, 0.571415
1626.5, 0.569424
1633.5, 0.565884
1640.5, 0.562742
1647.5, 0.559295
1654.5, 0.556796
1661.5, 0.554061
1668.5, 0.550638
1676.0, 0.546950
1684.0, 0.544911
1692.0, 0.543927
1700.0, 0.538888
1708.0, 0.538130
1716.0, 0.531931
1724.0, 0.528600
1732.0, 0.527915
1740.0, 0.525054
1748.0, 0.525432
1756.0, 0.520964
1764.0, 0.517136
1772.0, 0.516148
1780.0, 0.516306
1788.0, 0.515695
1796.0, 0.512205
1805.0, 0.509761
1815.0, 0.507937
1825.0, 0.506963
1835.0, 0.506905
1845.0, 0.505329
1855.0, 0.504926
1865.0, 0.503872
1875.0, 0.504216
1885.0, 0.502342
1895.0, 0.504795
1905.0, 0.502810
1915.0, 0.504985
1925.0, 0.506082
1935.0, 0.507628
1945.0, 0.511329
1955.0, 0.514069
1965.0, 0.514705
1975.0, 0.520285
1985.0, 0.523308
1995.0, 0.526997
2005.0, 0.529551
2015.0, 0.536126
2025.0, 0.534240
2035.0, 0.540714
2045.0, 0.544599
2055.0, 0.548532
2065.0, 0.552308
2075.0, 0.557434
2085.0, 0.562196
2095.0, 0.564340
2105.0, 0.571204
2115.0, 0.573949
2125.0, 0.578179
2135.0, 0.582312
2145.0, 0.586619
2155.0, 0.587066
2165.0, 0.591265
2175.0, 0.591089
2185.0, 0.594509
2195.0, 0.594745
2205.0, 0.597006
2215.0, 0.598124
2225.0, 0.599606
2235.0, 0.600739
2245.0, 0.601240
2255.0, 0.601882
2265.0, 0.600541
2275.0, 0.601330
2285.0, 0.594564
2295.0, 0.594169
2305.0, 0.581726
2315.0, 0.578424
2325.0, 0.593490
2335.0, 0.600249
2345.0, 0.604912
2355.0, 0.608727
2365.0, 0.608715
2375.0, 0.605165
2386.0, 0.603445
2400.0, 0.605704
2418.0, 0.610043
2440.0, 0.607772
2466.0, 0.607047
2496.0, 0.607125
2528.0, 0.606148
2560.0, 0.605400
2592.0, 0.603754
2624.0, 0.603654
2656.0, 0.596974
2688.0, 0.488928
2720.0, 0.244483
2752.0, 0.244290
2784.0, 0.269348
2816.0, 0.282762
2848.0, 0.286604
2880.0, 0.295918
2912.0, 0.304350
2944.0, 0.294126
2976.0, 0.296637
