Database of Origin, USGS Spectral Database
Sample Description, See USGS database for additional info
Date Added,2016-08-03 21:16:33.173768

Data ID,USGS_chr02          
Sample ID, chromite_hs281.5120
Mineral Name, chromite
Material Class,Oxide

Wavelength
1568.1, 0.0554350
1568.58, 0.0553230
1569.05, 0.0554720
1569.53, 0.0555850
1570.0, 0.0559220
1570.48, 0.0561460
1570.96, 0.0561090
1571.43, 0.0561460
1571.91, 0.0562960
1572.39, 0.0560710
1572.86, 0.0558090
1573.34, 0.0558090
1573.82, 0.0559960
1574.3, 0.0562580
1574.77, 0.0562960
1575.25, 0.0562960
1575.73, 0.0565200
1576.21, 0.0565200
1576.69, 0.0563710
1577.17, 0.0563330
1577.65, 0.0563710
1578.13, 0.0563330
1578.61, 0.0564830
1579.09, 0.0567450
1579.57, 0.0567820
1580.05, 0.0567450
1580.54, 0.0568200
1581.02, 0.0566330
1581.5, 0.0565200
1581.98, 0.0569700
1582.47, 0.0570440
1582.95, 0.0568570
1583.43, 0.0568200
1583.92, 0.0569320
1584.4, 0.0569320
1584.88, 0.0567820
1585.37, 0.0568570
1585.85, 0.0568950
1586.34, 0.0570820
1586.82, 0.0570820
1587.31, 0.0571570
1587.8, 0.0571190
1588.28, 0.0573060
1588.77, 0.0574190
1589.26, 0.0570440
1589.74, 0.0569700
1590.23, 0.0571190
1590.72, 0.0573810
1591.21, 0.0578680
1591.7, 0.0579800
1592.19, 0.0575680
1592.67, 0.0575680
1593.16, 0.0574560
1593.65, 0.0570070
1594.14, 0.0571570
1594.63, 0.0574560
1595.12, 0.0574940
1595.61, 0.0575680
1596.11, 0.0576430
1596.6, 0.0577180
1597.09, 0.0576060
1597.58, 0.0575680
1598.08, 0.0574560
1598.57, 0.0576810
1599.06, 0.0576430
1599.55, 0.0575310
1600.05, 0.0576060
1600.54, 0.0579050
1601.04, 0.0584290
1601.53, 0.0582800
1602.03, 0.0578680
1602.52, 0.0579800
1603.02, 0.0583170
1603.51, 0.0583170
1604.01, 0.0582800
1604.5, 0.0580550
1605.0, 0.0577930
1605.5, 0.0577930
1606.0, 0.0579430
1606.49, 0.0582420
1606.99, 0.0582420
1607.49, 0.0579430
1607.99, 0.0578680
1608.49, 0.0579800
1608.99, 0.0578300
1609.49, 0.0577560
1609.99, 0.0577560
1610.49, 0.0579050
1610.99, 0.0577180
1611.49, 0.0577930
1611.99, 0.0582800
1612.49, 0.0580550
1612.99, 0.0577560
1613.49, 0.0579800
1614.0, 0.0579800
1614.5, 0.0579050
1615.0, 0.0579430
1615.51, 0.0582800
1616.01, 0.0586910
1616.51, 0.0586170
1617.02, 0.0585420
1617.52, 0.0586170
1618.03, 0.0582800
1618.53, 0.0582420
1619.04, 0.0585040
1619.54, 0.0585040
1620.05, 0.0584670
1620.55, 0.0586910
1621.06, 0.0586170
1621.57, 0.0584670
1622.08, 0.0583550
1622.58, 0.0583550
1623.09, 0.0583170
1623.6, 0.0583920
1624.11, 0.0586170
1624.62, 0.0586540
1625.13, 0.0586540
1625.64, 0.0585420
1626.15, 0.0583920
1626.66, 0.0583550
1627.17, 0.0584670
1627.68, 0.0585790
1628.19, 0.0585040
1628.7, 0.0583920
1629.21, 0.0583920
1629.72, 0.0585040
1630.24, 0.0586910
1630.75, 0.0585790
1631.26, 0.0583170
1631.78, 0.0584290
1632.29, 0.0586910
1632.8, 0.0586540
1633.32, 0.0583550
1633.83, 0.0583920
1634.35, 0.0587660
1634.86, 0.0590280
1635.38, 0.0589530
1635.9, 0.0588040
1636.41, 0.0586910
1636.93, 0.0586170
1637.45, 0.0586540
1637.96, 0.0586910
1638.48, 0.0585420
1639.0, 0.0586910
1639.52, 0.0587660
1640.04, 0.0585420
1640.56, 0.0584290
1641.08, 0.0582800
1641.59, 0.0585790
1642.11, 0.0591410
1642.63, 0.0591780
1643.16, 0.0591410
1643.68, 0.0589910
1644.2, 0.0586910
1644.72, 0.0586170
1645.24, 0.0586910
1645.76, 0.0585040
1646.29, 0.0586540
1646.81, 0.0588410
1647.33, 0.0588410
1647.86, 0.0588040
1648.38, 0.0589160
1648.9, 0.0591410
1649.43, 0.0589160
1649.95, 0.0587660
1650.48, 0.0587290
1651.0, 0.0586910
1651.53, 0.0586540
1652.06, 0.0584670
1652.58, 0.0586910
1653.11, 0.0588410
1653.64, 0.0587290
1654.17, 0.0588040
1654.69, 0.0588040
1655.22, 0.0586910
1655.75, 0.0587660
1656.28, 0.0588040
1656.81, 0.0590280
1657.34, 0.0587660
1657.87, 0.0586170
1658.4, 0.0586170
1658.93, 0.0588040
1659.46, 0.0588410
1659.99, 0.0585420
1660.52, 0.0583920
1661.05, 0.0588040
1661.59, 0.0590280
1662.12, 0.0589530
1662.65, 0.0587660
1663.19, 0.0586540
1663.72, 0.0585040
1664.26, 0.0585420
1664.79, 0.0588410
1665.32, 0.0588410
1665.86, 0.0587290
1666.39, 0.0588790
1666.93, 0.0588040
1667.47, 0.0586540
1668.0, 0.0585420
1668.54, 0.0583550
1669.08, 0.0584670
1669.61, 0.0585790
1670.15, 0.0585790
1670.69, 0.0586910
1671.23, 0.0587660
1671.77, 0.0588040
1672.31, 0.0588040
1672.85, 0.0588040
1673.39, 0.0585790
1673.93, 0.0586540
1674.47, 0.0586540
1675.01, 0.0585420
1675.55, 0.0584670
1676.09, 0.0583170
1676.64, 0.0582800
1677.18, 0.0587290
1677.72, 0.0588410
1678.26, 0.0587660
1678.81, 0.0588410
1679.35, 0.0586540
1679.89, 0.0585040
1680.44, 0.0586540
1680.98, 0.0589160
1681.53, 0.0589160
1682.07, 0.0587660
1682.62, 0.0587290
1683.17, 0.0583920
1683.71, 0.0580920
1684.26, 0.0583170
1684.81, 0.0586540
1685.36, 0.0586170
1685.9, 0.0584290
1686.45, 0.0584670
1687.0, 0.0585040
1687.55, 0.0583920
1688.1, 0.0583170
1688.65, 0.0585420
1689.2, 0.0586540
1689.75, 0.0585040
1690.3, 0.0583550
1690.85, 0.0585420
1691.41, 0.0586540
1691.96, 0.0585040
1692.51, 0.0583920
1693.06, 0.0583920
1693.61, 0.0582800
1694.17, 0.0583920
1694.72, 0.0586910
1695.28, 0.0585790
1695.83, 0.0583550
1696.39, 0.0583550
1696.94, 0.0584290
1697.5, 0.0585420
1698.05, 0.0585420
1698.61, 0.0585040
1699.17, 0.0583170
1699.72, 0.0582800
1700.28, 0.0583170
1700.84, 0.0584670
1701.4, 0.0585790
1701.95, 0.0584670
1702.51, 0.0582050
1703.07, 0.0581300
1703.63, 0.0582800
1704.19, 0.0583170
1704.75, 0.0583170
1705.31, 0.0585420
1705.88, 0.0585790
1706.44, 0.0583170
1707.0, 0.0581300
1707.56, 0.0581670
1708.12, 0.0581670
1708.69, 0.0580920
1709.25, 0.0580180
1709.81, 0.0580920
1710.38, 0.0580550
1710.94, 0.0579050
1711.51, 0.0580550
1712.07, 0.0580920
1712.64, 0.0581670
1713.2, 0.0582800
1713.77, 0.0582800
1714.34, 0.0580920
1714.9, 0.0579430
1715.47, 0.0579430
1716.04, 0.0580550
1716.61, 0.0579800
1717.18, 0.0579430
1717.74, 0.0580550
1718.31, 0.0579430
1718.88, 0.0577930
1719.45, 0.0579050
1720.02, 0.0580920
1720.59, 0.0579430
1721.17, 0.0579050
1721.74, 0.0578300
1722.31, 0.0577560
1722.88, 0.0578300
1723.45, 0.0577930
1724.03, 0.0577180
1724.6, 0.0577560
1725.18, 0.0578680
1725.75, 0.0578300
1726.33, 0.0579430
1726.9, 0.0577930
1727.48, 0.0578680
1728.05, 0.0578300
1728.63, 0.0576810
1729.2, 0.0575680
1729.78, 0.0575310
1730.36, 0.0575680
1730.94, 0.0576060
1731.51, 0.0576430
1732.09, 0.0578300
1732.67, 0.0578300
1733.25, 0.0579050
1733.83, 0.0578680
1734.41, 0.0576060
1734.99, 0.0573810
1735.57, 0.0573810
1736.15, 0.0575310
1736.73, 0.0575680
1737.32, 0.0574560
1737.9, 0.0576060
1738.48, 0.0575680
1739.07, 0.0577180
1739.65, 0.0577180
1740.23, 0.0573810
1740.82, 0.0571570
1741.4, 0.0571190
1741.99, 0.0571570
1742.57, 0.0570820
1743.16, 0.0571940
1743.74, 0.0574560
1744.33, 0.0574940
1744.92, 0.0572690
1745.51, 0.0571190
1746.09, 0.0572690
1746.68, 0.0573810
1747.27, 0.0573810
1747.86, 0.0571570
1748.45, 0.0571190
1749.04, 0.0571570
1749.63, 0.0570440
1750.22, 0.0571190
1750.81, 0.0571940
1751.4, 0.0570070
1751.99, 0.0568950
1752.59, 0.0569700
1753.18, 0.0571570
1753.77, 0.0572320
1754.37, 0.0570070
1754.96, 0.0567450
1755.56, 0.0567450
1756.15, 0.0569320
1756.74, 0.0571570
1757.34, 0.0570820
1757.94, 0.0568950
1758.53, 0.0566700
1759.13, 0.0564460
1759.73, 0.0566700
1760.32, 0.0568200
1760.92, 0.0568570
1761.52, 0.0571190
1762.12, 0.0568570
1762.72, 0.0567820
1763.32, 0.0569700
1763.92, 0.0569320
1764.52, 0.0567450
1765.12, 0.0567450
1765.72, 0.0566330
1766.32, 0.0567450
1766.92, 0.0568200
1767.53, 0.0565950
1768.13, 0.0562210
1768.73, 0.0562580
1769.34, 0.0564080
1769.94, 0.0563710
1770.55, 0.0563710
1771.15, 0.0563710
1771.76, 0.0562210
1772.36, 0.0562960
1772.97, 0.0563330
1773.57, 0.0562960
1774.18, 0.0563330
1774.79, 0.0563330
1775.4, 0.0562960
1776.0, 0.0562960
1776.61, 0.0561090
1777.22, 0.0561460
1777.83, 0.0562210
1778.44, 0.0561840
1779.05, 0.0561460
1779.66, 0.0561840
1780.27, 0.0562210
1780.88, 0.0562210
1781.5, 0.0562580
1782.11, 0.0561460
1782.72, 0.0558470
1783.33, 0.0558470
1783.95, 0.0558840
1784.56, 0.0559590
1785.18, 0.0560340
1785.79, 0.0560710
1786.41, 0.0560710
1787.02, 0.0561460
1787.64, 0.0562210
1788.26, 0.0560710
1788.87, 0.0559960
1789.49, 0.0558470
1790.11, 0.0558090
1790.73, 0.0558090
1791.35, 0.0557720
1791.96, 0.0558840
1792.58, 0.0559960
1793.21, 0.0558840
1793.83, 0.0557340
1794.45, 0.0558090
1795.07, 0.0557340
1795.69, 0.0557720
1796.31, 0.0556970
1796.93, 0.0556600
1797.56, 0.0556600
1798.18, 0.0556970
1798.8, 0.0557340
1799.43, 0.0557720
1800.05, 0.0557340
1800.68, 0.0555850
1801.3, 0.0553230
1801.93, 0.0552480
1802.56, 0.0553230
1803.18, 0.0554720
1803.81, 0.0556220
1804.44, 0.0556220
1805.07, 0.0555850
1805.7, 0.0554720
1806.33, 0.0553600
1806.95, 0.0553970
1807.58, 0.0553600
1808.22, 0.0553600
1808.85, 0.0552850
1809.48, 0.0551730
1810.11, 0.0549860
1810.74, 0.0548730
1811.38, 0.0549860
1812.01, 0.0552100
1812.64, 0.0553970
1813.28, 0.0553600
1813.91, 0.0550610
1814.55, 0.0550610
1815.18, 0.0551730
1815.82, 0.0551350
1816.45, 0.0550980
1817.09, 0.0553230
1817.73, 0.0553230
1818.36, 0.0550980
1819.0, 0.0552100
1819.64, 0.0552480
1820.28, 0.0549860
1820.92, 0.0549110
1821.56, 0.0550230
1822.2, 0.0549110
1822.84, 0.0547610
1823.48, 0.0547240
1824.12, 0.0547240
1824.76, 0.0547610
1825.41, 0.0548360
1826.05, 0.0550230
1826.69, 0.0550610
1827.34, 0.0549480
1827.98, 0.0547990
1828.63, 0.0547610
1829.27, 0.0549480
1829.92, 0.0548730
1830.56, 0.0547240
1831.21, 0.0547990
1831.86, 0.0545740
1832.5, 0.0543120
1833.15, 0.0543490
1833.8, 0.0543870
1834.45, 0.0544620
1835.1, 0.0545740
1835.75, 0.0546110
1836.4, 0.0546110
1837.05, 0.0545740
1837.7, 0.0543870
1838.35, 0.0543490
1839.01, 0.0544990
1839.66, 0.0545370
1840.31, 0.0544240
1840.96, 0.0543490
1841.62, 0.0544240
1842.27, 0.0543870
1842.93, 0.0542750
1843.58, 0.0542370
1844.24, 0.0541620
1844.9, 0.0543490
1845.55, 0.0546110
1846.21, 0.0546490
1846.87, 0.0544620
1847.53, 0.0542750
1848.18, 0.0543120
1848.84, 0.0543490
1849.5, 0.0542750
1850.16, 0.0540500
1850.82, 0.0539380
1851.48, 0.0539750
1852.14, 0.0540130
1852.81, 0.0540130
1853.47, 0.0541250
1854.13, 0.0542370
1854.8, 0.0540500
1855.46, 0.0538250
1856.12, 0.0537880
1856.79, 0.0538250
1857.45, 0.0537510
1858.12, 0.0536380
1858.79, 0.0537130
1859.45, 0.0541620
1860.12, 0.0541250
1860.79, 0.0537510
1861.46, 0.0535260
1862.12, 0.0535630
1862.79, 0.0536010
1863.46, 0.0535630
1864.13, 0.0537130
1864.8, 0.0538630
1865.48, 0.0539380
1866.15, 0.0537880
1866.82, 0.0536760
1867.49, 0.0538250
1868.16, 0.0538630
1868.84, 0.0537510
1869.51, 0.0535630
1870.19, 0.0535260
1870.86, 0.0538250
1871.54, 0.0537880
1872.21, 0.0536380
1872.89, 0.0537130
1873.56, 0.0537510
1874.24, 0.0534510
1874.92, 0.0531890
1875.6, 0.0530390
1876.28, 0.0531520
1876.96, 0.0533390
1877.64, 0.0533390
1878.32, 0.0533390
1879.0, 0.0533760
1879.68, 0.0534140
1880.36, 0.0533760
1881.04, 0.0531890
1881.73, 0.0531890
1882.41, 0.0532270
1883.09, 0.0532270
1883.78, 0.0532640
1884.46, 0.0532270
1885.15, 0.0532640
1885.83, 0.0531140
1886.52, 0.0529270
1887.21, 0.0530020
1887.89, 0.0531140
1888.58, 0.0530770
1889.27, 0.0531890
1889.96, 0.0534510
1890.65, 0.0533010
1891.34, 0.0531140
1892.03, 0.0531890
1892.72, 0.0532270
1893.41, 0.0531890
1894.1, 0.0531140
1894.79, 0.0529270
1895.49, 0.0530020
1896.18, 0.0531140
1896.87, 0.0531890
1897.57, 0.0531520
1898.26, 0.0531520
1898.96, 0.0529640
1899.65, 0.0529270
1900.35, 0.0530020
1901.05, 0.0529270
1901.74, 0.0528520
1902.44, 0.0531520
1903.14, 0.0532270
1903.84, 0.0530390
1904.54, 0.0530390
1905.24, 0.0531140
1905.94, 0.0529640
1906.64, 0.0530020
1907.34, 0.0529640
1908.04, 0.0528150
1908.75, 0.0527770
1909.45, 0.0529270
1910.15, 0.0528900
1910.86, 0.0527770
1911.56, 0.0528520
1912.27, 0.0530020
1912.97, 0.0528900
1913.68, 0.0527400
1914.39, 0.0527400
1915.09, 0.0527020
1915.8, 0.0527400
1916.51, 0.0527020
1917.22, 0.0526650
1917.93, 0.0526650
1918.64, 0.0527400
1919.35, 0.0528150
1920.06, 0.0528520
1920.77, 0.0529270
1921.48, 0.0528900
1922.19, 0.0527770
1922.91, 0.0527770
1923.62, 0.0528520
1924.33, 0.0528520
1925.05, 0.0529270
1925.76, 0.0528520
1926.48, 0.0526650
1927.19, 0.0526280
1927.91, 0.0526650
1928.63, 0.0525530
1929.35, 0.0525530
1930.07, 0.0525900
1930.78, 0.0525900
1931.5, 0.0525530
1932.22, 0.0524780
1932.94, 0.0524030
1933.66, 0.0522910
1934.39, 0.0523280
1935.11, 0.0524780
1935.83, 0.0524780
1936.55, 0.0525530
1937.28, 0.0525150
1938.0, 0.0525150
1938.73, 0.0525150
1939.45, 0.0524400
1940.18, 0.0524780
1940.9, 0.0524780
1941.63, 0.0524400
1942.36, 0.0524780
1943.09, 0.0524780
1943.81, 0.0523660
1944.54, 0.0523660
1945.27, 0.0523280
1946.0, 0.0523280
1946.73, 0.0523660
1947.47, 0.0522530
1948.2, 0.0521780
1948.93, 0.0521410
1949.66, 0.0521410
1950.4, 0.0521410
1951.13, 0.0522160
1951.86, 0.0522910
1952.6, 0.0522160
1953.34, 0.0521780
1954.07, 0.0520660
1954.81, 0.0521040
1955.55, 0.0521780
1956.29, 0.0521780
1957.02, 0.0522530
1957.76, 0.0521780
1958.5, 0.0520660
1959.24, 0.0521040
1959.98, 0.0522530
1960.72, 0.0521780
1961.47, 0.0520660
1962.21, 0.0519910
1962.95, 0.0520290
1963.7, 0.0521040
1964.44, 0.0520660
1965.18, 0.0520660
1965.93, 0.0521410
1966.67, 0.0521780
1967.42, 0.0521040
1968.17, 0.0519540
1968.92, 0.0520660
1969.66, 0.0520290
1970.41, 0.0518420
1971.16, 0.0519160
1971.91, 0.0521410
1972.66, 0.0521040
1973.41, 0.0521040
1974.16, 0.0521040
1974.92, 0.0520660
1975.67, 0.0519910
1976.42, 0.0519910
1977.18, 0.0521040
1977.93, 0.0520660
1978.69, 0.0518790
1979.44, 0.0518790
1980.2, 0.0518790
1980.95, 0.0519540
1981.71, 0.0520660
1982.47, 0.0519540
1983.23, 0.0519910
1983.99, 0.0522160
1984.74, 0.0521040
1985.51, 0.0518420
1986.27, 0.0517290
1987.03, 0.0518790
1987.79, 0.0518420
1988.55, 0.0518790
1989.32, 0.0518790
1990.08, 0.0518040
1990.84, 0.0516920
1991.61, 0.0517670
1992.37, 0.0519910
1993.14, 0.0519160
1993.9, 0.0519160
1994.67, 0.0519540
1995.44, 0.0518790
1996.21, 0.0518790
1996.98, 0.0518790
1997.75, 0.0519910
1998.52, 0.0519540
1999.29, 0.0517670
2000.06, 0.0517670
2000.83, 0.0519160
2001.6, 0.0520290
2002.38, 0.0519910
2003.15, 0.0519160
2003.93, 0.0519160
2004.7, 0.0519540
2005.48, 0.0519910
2006.25, 0.0519540
2007.03, 0.0519160
2007.81, 0.0519160
2008.58, 0.0519160
2009.36, 0.0518420
2010.14, 0.0519160
2010.92, 0.0520660
2011.7, 0.0521780
2012.48, 0.0522160
2013.26, 0.0521040
2014.05, 0.0519540
2014.83, 0.0520660
2015.61, 0.0521040
2016.4, 0.0520290
2017.18, 0.0520660
2017.97, 0.0520660
2018.75, 0.0521040
2019.54, 0.0520290
2020.32, 0.0519910
2021.11, 0.0520290
2021.9, 0.0520290
2022.69, 0.0520290
2023.48, 0.0519910
2024.27, 0.0518790
2025.06, 0.0519540
2025.85, 0.0519910
2026.64, 0.0520290
2027.44, 0.0521780
2028.23, 0.0523280
2029.02, 0.0522160
2029.82, 0.0519910
2030.61, 0.0519910
2031.41, 0.0520660
2032.2, 0.0521410
2033.0, 0.0522530
2033.8, 0.0522910
2034.6, 0.0522160
2035.4, 0.0523280
2036.2, 0.0523280
2037.0, 0.0521780
2037.8, 0.0521040
2038.6, 0.0520660
2039.4, 0.0521410
2040.2, 0.0522530
2041.01, 0.0523660
2041.81, 0.0523660
2042.61, 0.0522160
2043.42, 0.0521780
2044.22, 0.0520660
2045.03, 0.0521040
2045.84, 0.0521040
2046.65, 0.0521410
2047.46, 0.0521780
2048.26, 0.0521410
2049.07, 0.0522910
2049.88, 0.0524780
2050.69, 0.0524030
2051.51, 0.0521780
2052.32, 0.0520660
2053.13, 0.0523660
2053.94, 0.0524030
2054.76, 0.0521040
2055.57, 0.0521410
2056.39, 0.0522910
2057.2, 0.0522910
2058.02, 0.0523280
2058.84, 0.0521780
2059.66, 0.0521410
2060.48, 0.0522530
2061.29, 0.0522910
2062.11, 0.0521780
2062.94, 0.0522530
2063.76, 0.0522160
2064.58, 0.0523280
2065.4, 0.0524030
2066.22, 0.0522910
2067.05, 0.0522910
2067.87, 0.0522530
2068.7, 0.0521410
2069.52, 0.0522530
2070.35, 0.0522530
2071.18, 0.0523280
2072.0, 0.0523660
2072.83, 0.0522530
2073.66, 0.0522910
2074.49, 0.0523280
2075.32, 0.0522530
2076.15, 0.0521780
2076.98, 0.0521780
2077.82, 0.0522160
2078.65, 0.0523280
2079.48, 0.0524780
2080.32, 0.0524030
2081.15, 0.0524400
2081.99, 0.0523280
2082.83, 0.0523660
2083.66, 0.0524030
2084.5, 0.0523280
2085.34, 0.0522910
2086.18, 0.0523280
2087.02, 0.0524780
2087.86, 0.0524780
2088.7, 0.0524030
2089.54, 0.0524030
2090.39, 0.0524780
2091.23, 0.0524780
2092.07, 0.0523660
2092.92, 0.0523280
2093.76, 0.0524030
2094.61, 0.0523660
2095.45, 0.0522910
2096.3, 0.0524030
2097.15, 0.0525150
2098.0, 0.0525150
2098.85, 0.0522910
2099.7, 0.0521780
2100.55, 0.0522530
2101.4, 0.0523280
2102.25, 0.0522530
2103.1, 0.0523280
2103.96, 0.0522530
2104.81, 0.0523280
2105.67, 0.0524030
2106.52, 0.0522530
2107.38, 0.0521780
2108.24, 0.0523660
2109.09, 0.0522910
2109.95, 0.0522530
2110.81, 0.0522530
2111.67, 0.0522910
2112.53, 0.0522910
2113.39, 0.0522160
2114.25, 0.0522160
2115.12, 0.0523660
2115.98, 0.0524030
2116.84, 0.0524400
2117.71, 0.0524030
2118.58, 0.0524400
2119.44, 0.0524400
2120.31, 0.0523660
2121.18, 0.0522530
2122.04, 0.0522530
2122.91, 0.0522530
2123.78, 0.0524400
2124.65, 0.0522910
2125.52, 0.0521410
2126.4, 0.0523280
2127.27, 0.0524780
2128.14, 0.0524400
2129.02, 0.0523280
2129.89, 0.0522910
2130.77, 0.0522910
2131.64, 0.0522910
2132.52, 0.0522910
2133.4, 0.0523280
2134.27, 0.0523660
2135.15, 0.0523280
2136.03, 0.0523280
2136.91, 0.0523280
2137.79, 0.0524030
2138.68, 0.0524400
2139.56, 0.0524400
2140.44, 0.0523280
2141.33, 0.0523660
2142.21, 0.0524030
2143.1, 0.0522910
2143.99, 0.0522910
2144.87, 0.0525150
2145.76, 0.0524400
2146.65, 0.0523280
2147.54, 0.0522910
2148.43, 0.0522530
2149.32, 0.0523660
2150.21, 0.0525150
2151.1, 0.0524030
2151.99, 0.0522160
2152.89, 0.0521780
2153.78, 0.0523280
2154.68, 0.0523280
2155.57, 0.0522910
2156.47, 0.0523660
2157.37, 0.0524030
2158.27, 0.0523280
2159.16, 0.0524030
2160.06, 0.0526280
2160.96, 0.0525530
2161.86, 0.0523660
2162.77, 0.0524400
2163.67, 0.0524780
2164.57, 0.0524780
2165.48, 0.0524400
2166.38, 0.0523660
2167.29, 0.0521780
2168.2, 0.0521780
2169.1, 0.0522910
2170.01, 0.0522530
2170.92, 0.0522160
2171.83, 0.0523280
2172.74, 0.0524030
2173.65, 0.0523660
2174.56, 0.0522530
2175.47, 0.0522910
2176.39, 0.0524030
2177.3, 0.0524400
2178.22, 0.0524030
2179.13, 0.0522910
2180.05, 0.0522910
2180.96, 0.0524780
2181.88, 0.0524780
2182.8, 0.0524030
2183.72, 0.0522530
2184.64, 0.0521780
2185.56, 0.0521780
2186.48, 0.0522160
2187.41, 0.0522530
2188.33, 0.0522530
2189.25, 0.0522530
2190.18, 0.0522530
2191.1, 0.0522910
2192.03, 0.0523280
2192.96, 0.0522160
2193.89, 0.0523660
2194.82, 0.0524030
2195.74, 0.0522910
2196.68, 0.0522910
2197.61, 0.0522530
2198.54, 0.0522530
2199.47, 0.0522910
2200.4, 0.0522160
2201.34, 0.0522160
2202.28, 0.0521780
2203.21, 0.0521410
2204.15, 0.0521410
2205.08, 0.0521410
2206.02, 0.0521040
2206.96, 0.0519910
2207.9, 0.0519910
2208.84, 0.0521040
2209.78, 0.0520660
2210.73, 0.0520290
2211.67, 0.0520660
2212.61, 0.0520290
2213.56, 0.0520290
2214.5, 0.0521780
2215.45, 0.0522910
2216.4, 0.0522910
2217.35, 0.0522160
2218.3, 0.0522910
2219.24, 0.0523280
2220.2, 0.0521410
2221.15, 0.0518790
2222.1, 0.0518040
2223.05, 0.0518790
2224.0, 0.0520290
2224.96, 0.0520290
2225.91, 0.0519540
2226.87, 0.0519160
2227.83, 0.0519160
2228.79, 0.0518040
2229.74, 0.0517670
2230.7, 0.0518040
2231.66, 0.0517290
2232.63, 0.0515420
2233.59, 0.0514300
2234.55, 0.0515050
2235.51, 0.0515420
2236.48, 0.0516170
2237.44, 0.0515420
2238.41, 0.0513550
2239.38, 0.0513180
